SpectraSuite Data File
++++++++++++++++++++++++++++++++++++
Date: Sat Apr 28 14:01:04 GMT-03:00 2018
User: Diogo
Dark Spectrum Present: Yes
Reference Spectrum Present: Yes
Number of Sampled Component Spectra: 1
Spectrometers: USB4J00421
Integration Time (usec): 1245403 (USB4J00421)
Spectra Averaged: 5 (USB4J00421)
Boxcar Smoothing: 5 (USB4J00421)
Correct for Electrical Dark: No (USB4J00421)
Strobe/Lamp Enabled: No (USB4J00421)
Correct for Detector Non-linearity: No (USB4J00421)
Correct for Stray Light: No (USB4J00421)
Number of Pixels in Processed Spectrum: 3648
>>>>>Begin Processed Spectral Data<<<<<
177,28	111,282
177,50	111,282
177,72	111,282
177,94	88,136
178,16	110,731
178,37	101,099
178,59	100,482
178,81	98,392
179,03	97,044
179,25	98,236
179,47	93,048
179,69	91,232
179,90	82,508
180,12	77,901
180,34	73,628
180,56	74,292
180,78	71,986
181,00	68,566
181,22	67,510
181,43	65,439
181,65	63,604
181,87	63,500
182,09	63,266
182,31	62,637
182,53	61,572
182,74	61,583
182,96	57,968
183,18	57,039
183,40	58,252
183,62	56,269
183,84	57,551
184,05	58,398
184,27	57,126
184,49	55,952
184,71	55,416
184,93	55,758
185,15	53,755
185,36	54,682
185,58	55,199
185,80	54,849
186,02	54,736
186,24	54,808
186,45	53,770
186,67	53,622
186,89	54,187
187,11	55,009
187,33	55,762
187,55	55,913
187,76	57,272
187,98	58,550
188,20	59,206
188,42	59,935
188,64	59,408
188,85	58,187
189,07	58,498
189,29	59,758
189,51	59,862
189,73	60,230
189,94	60,779
190,16	59,709
190,38	57,672
190,60	58,196
190,82	57,225
191,03	57,595
191,25	57,664
191,47	56,770
191,69	55,029
191,91	53,836
192,12	53,310
192,34	52,511
192,56	51,458
192,78	51,337
193,00	49,615
193,21	49,700
193,43	46,705
193,65	48,507
193,87	49,209
194,09	51,223
194,30	51,245
194,52	51,404
194,74	51,723
194,96	54,067
195,17	52,398
195,39	52,954
195,61	52,986
195,83	54,746
196,05	54,472
196,26	53,647
196,48	53,762
196,70	55,296
196,92	55,178
197,13	54,515
197,35	52,756
197,57	53,885
197,79	52,761
198,01	52,611
198,22	51,642
198,44	51,891
198,66	53,066
198,88	50,756
199,09	49,539
199,31	49,361
199,53	49,220
199,75	49,763
199,96	50,663
200,18	50,278
200,40	50,360
200,62	50,441
200,83	49,649
201,05	48,874
201,27	48,852
201,49	47,908
201,70	49,330
201,92	48,422
202,14	48,204
202,36	48,507
202,57	51,008
202,79	49,923
203,01	50,446
203,23	50,702
203,44	52,507
203,66	54,892
203,88	55,619
204,10	55,574
204,31	56,945
204,53	57,075
204,75	56,242
204,97	56,303
205,18	57,809
205,40	57,222
205,62	58,223
205,84	56,635
206,05	54,888
206,27	55,989
206,49	56,608
206,71	56,000
206,92	56,167
207,14	56,588
207,36	54,478
207,57	52,980
207,79	53,669
208,01	51,572
208,23	51,639
208,44	52,743
208,66	50,485
208,88	48,712
209,10	48,449
209,31	47,380
209,53	47,568
209,75	47,737
209,96	47,897
210,18	47,306
210,40	47,424
210,62	47,048
210,83	45,599
211,05	46,443
211,27	46,103
211,48	45,082
211,70	44,087
211,92	42,164
212,14	41,286
212,35	39,571
212,57	39,288
212,79	39,490
213,00	38,774
213,22	38,679
213,44	38,119
213,65	36,438
213,87	36,298
214,09	35,956
214,31	34,761
214,52	34,133
214,74	34,073
214,96	31,838
215,17	30,577
215,39	29,188
215,61	28,422
215,82	27,578
216,04	27,220
216,26	26,472
216,47	26,396
216,69	26,065
216,91	25,742
217,13	25,014
217,34	25,263
217,56	24,998
217,78	25,083
217,99	24,881
218,21	24,718
218,43	24,520
218,64	24,483
218,86	24,348
219,08	24,194
219,29	24,066
219,51	24,314
219,73	24,312
219,94	24,272
220,16	24,247
220,38	24,050
220,59	23,916
220,81	23,835
221,03	23,886
221,24	23,665
221,46	23,718
221,68	23,657
221,89	23,610
222,11	23,501
222,33	23,328
222,54	23,090
222,76	23,040
222,98	22,898
223,19	22,818
223,41	22,753
223,63	22,626
223,84	22,448
224,06	22,354
224,28	22,053
224,49	22,007
224,71	22,060
224,93	22,113
225,14	22,059
225,36	22,122
225,57	22,101
225,79	21,920
226,01	21,932
226,22	22,003
226,44	21,897
226,66	22,063
226,87	21,975
227,09	21,804
227,31	21,758
227,52	21,700
227,74	21,663
227,96	21,702
228,17	21,646
228,39	21,662
228,60	21,632
228,82	21,594
229,04	21,507
229,25	21,524
229,47	21,525
229,69	21,471
229,90	21,429
230,12	21,450
230,33	21,332
230,55	21,373
230,77	21,358
230,98	21,427
231,20	21,535
231,42	21,632
231,63	21,621
231,85	21,635
232,06	21,721
232,28	21,872
232,50	21,876
232,71	21,963
232,93	22,045
233,15	22,107
233,36	22,066
233,58	22,151
233,79	22,082
234,01	22,182
234,23	22,296
234,44	22,336
234,66	22,360
234,87	22,453
235,09	22,542
235,31	22,590
235,52	22,658
235,74	22,746
235,95	22,799
236,17	22,930
236,39	22,963
236,60	23,009
236,82	23,060
237,03	23,098
237,25	23,264
237,47	23,361
237,68	23,444
237,90	23,575
238,11	23,767
238,33	23,857
238,55	23,995
238,76	24,117
238,98	24,302
239,19	24,480
239,41	24,703
239,62	24,789
239,84	24,927
240,06	25,122
240,27	25,223
240,49	25,279
240,70	25,441
240,92	25,596
241,13	25,801
241,35	25,908
241,57	26,039
241,78	26,116
242,00	26,245
242,21	26,418
242,43	26,541
242,64	26,640
242,86	26,754
243,08	26,888
243,29	27,010
243,51	27,091
243,72	27,222
243,94	27,348
244,15	27,449
244,37	27,504
244,59	27,525
244,80	27,607
245,02	27,721
245,23	27,875
245,45	27,991
245,66	28,083
245,88	28,132
246,09	28,224
246,31	28,312
246,53	28,410
246,74	28,472
246,96	28,599
247,17	28,645
247,39	28,718
247,60	28,774
247,82	28,778
248,03	28,799
248,25	28,820
248,46	28,846
248,68	28,884
248,90	28,925
249,11	28,999
249,33	29,017
249,54	29,025
249,76	29,059
249,97	29,078
250,19	29,102
250,40	29,133
250,62	29,221
250,83	29,250
251,05	29,258
251,26	29,267
251,48	29,295
251,69	29,306
251,91	29,390
252,13	29,401
252,34	29,398
252,56	29,481
252,77	29,475
252,99	29,489
253,20	29,495
253,42	29,522
253,63	29,550
253,85	29,554
254,06	29,552
254,28	29,533
254,49	29,533
254,71	29,543
254,92	29,483
255,14	29,475
255,35	29,481
255,57	29,478
255,78	29,439
256,00	29,397
256,21	29,361
256,43	29,367
256,64	29,332
256,86	29,316
257,07	29,252
257,29	29,230
257,50	29,229
257,72	29,151
257,93	29,143
258,15	29,106
258,36	29,127
258,58	29,102
258,79	29,061
259,01	29,045
259,22	28,984
259,44	28,959
259,65	28,944
259,87	28,906
260,08	28,921
260,30	28,884
260,51	28,875
260,73	28,805
260,94	28,725
261,16	28,715
261,37	28,672
261,59	28,684
261,80	28,686
262,02	28,653
262,23	28,613
262,45	28,586
262,66	28,533
262,87	28,479
263,09	28,449
263,30	28,465
263,52	28,474
263,73	28,445
263,95	28,428
264,16	28,378
264,38	28,322
264,59	28,313
264,81	28,226
265,02	28,204
265,24	28,198
265,45	28,181
265,67	28,167
265,88	28,053
266,09	28,019
266,31	27,947
266,52	27,926
266,74	27,893
266,95	27,843
267,17	27,838
267,38	27,816
267,60	27,766
267,81	27,739
268,03	27,711
268,24	27,700
268,45	27,669
268,67	27,656
268,88	27,624
269,10	27,612
269,31	27,582
269,53	27,536
269,74	27,493
269,96	27,512
270,17	27,480
270,38	27,435
270,60	27,426
270,81	27,414
271,03	27,397
271,24	27,374
271,46	27,347
271,67	27,325
271,88	27,335
272,10	27,343
272,31	27,264
272,53	27,255
272,74	27,192
272,96	27,175
273,17	27,108
273,38	27,054
273,60	27,022
273,81	26,977
274,03	26,996
274,24	26,957
274,46	26,906
274,67	26,901
274,88	26,827
275,10	26,872
275,31	26,835
275,53	26,861
275,74	26,839
275,95	26,824
276,17	26,824
276,38	26,765
276,60	26,787
276,81	26,771
277,02	26,777
277,24	26,802
277,45	26,806
277,67	26,792
277,88	26,764
278,09	26,788
278,31	26,803
278,52	26,832
278,74	26,833
278,95	26,839
279,16	26,888
279,38	26,904
279,59	26,912
279,81	26,911
280,02	26,961
280,23	26,994
280,45	27,031
280,66	27,057
280,88	27,056
281,09	27,133
281,30	27,107
281,52	27,123
281,73	27,161
281,94	27,206
282,16	27,219
282,37	27,244
282,59	27,280
282,80	27,294
283,01	27,335
283,23	27,361
283,44	27,349
283,65	27,416
283,87	27,457
284,08	27,495
284,30	27,562
284,51	27,636
284,72	27,670
284,94	27,720
285,15	27,790
285,36	27,885
285,58	27,957
285,79	28,071
286,01	28,175
286,22	28,244
286,43	28,341
286,65	28,463
286,86	28,552
287,07	28,717
287,29	28,880
287,50	29,022
287,71	29,174
287,93	29,372
288,14	29,515
288,35	29,671
288,57	29,834
288,78	29,971
288,99	30,099
289,21	30,287
289,42	30,391
289,63	30,533
289,85	30,646
290,06	30,759
290,28	30,878
290,49	30,989
290,70	31,076
290,92	31,203
291,13	31,344
291,34	31,476
291,56	31,578
291,77	31,701
291,98	31,763
292,20	31,898
292,41	31,989
292,62	32,061
292,84	32,184
293,05	32,313
293,26	32,413
293,47	32,473
293,69	32,554
293,90	32,623
294,11	32,676
294,33	32,800
294,54	32,883
294,75	32,951
294,97	33,067
295,18	33,139
295,39	33,188
295,61	33,261
295,82	33,345
296,03	33,393
296,25	33,460
296,46	33,565
296,67	33,627
296,89	33,692
297,10	33,799
297,31	33,889
297,52	33,962
297,74	34,092
297,95	34,219
298,16	34,315
298,38	34,470
298,59	34,620
298,80	34,689
299,02	34,800
299,23	34,890
299,44	35,021
299,65	35,071
299,87	35,151
300,08	35,183
300,29	35,219
300,51	35,309
300,72	35,343
300,93	35,392
301,14	35,455
301,36	35,478
301,57	35,533
301,78	35,521
302,00	35,583
302,21	35,631
302,42	35,686
302,63	35,717
302,85	35,772
303,06	35,813
303,27	35,810
303,49	35,855
303,70	35,902
303,91	35,935
304,12	35,962
304,34	36,000
304,55	36,057
304,76	36,129
304,97	36,195
305,19	36,226
305,40	36,284
305,61	36,340
305,82	36,406
306,04	36,451
306,25	36,534
306,46	36,613
306,68	36,659
306,89	36,703
307,10	36,702
307,31	36,723
307,53	36,749
307,74	36,784
307,95	36,835
308,16	36,867
308,38	36,926
308,59	36,952
308,80	36,996
309,01	37,030
309,23	37,060
309,44	37,147
309,65	37,201
309,86	37,252
310,07	37,261
310,29	37,297
310,50	37,383
310,71	37,461
310,92	37,499
311,14	37,529
311,35	37,587
311,56	37,644
311,77	37,679
311,99	37,757
312,20	37,797
312,41	37,821
312,62	37,859
312,84	37,866
313,05	37,878
313,26	37,861
313,47	37,927
313,68	37,948
313,90	38,008
314,11	38,041
314,32	38,055
314,53	38,122
314,75	38,186
314,96	38,265
315,17	38,297
315,38	38,365
315,59	38,481
315,81	38,495
316,02	38,550
316,23	38,540
316,44	38,585
316,65	38,615
316,87	38,650
317,08	38,697
317,29	38,710
317,50	38,791
317,71	38,827
317,93	38,902
318,14	38,932
318,35	38,977
318,56	39,043
318,77	39,105
318,99	39,185
319,20	39,215
319,41	39,273
319,62	39,350
319,83	39,385
320,05	39,403
320,26	39,383
320,47	39,461
320,68	39,523
320,89	39,590
321,11	39,649
321,32	39,717
321,53	39,745
321,74	39,830
321,95	39,859
322,16	39,880
322,38	39,933
322,59	39,998
322,80	40,004
323,01	40,024
323,22	40,041
323,43	40,024
323,65	40,000
323,86	40,057
324,07	40,029
324,28	40,024
324,49	40,026
324,70	40,035
324,92	40,032
325,13	40,078
325,34	40,102
325,55	40,096
325,76	40,126
325,97	40,126
326,19	40,122
326,40	40,138
326,61	40,218
326,82	40,271
327,03	40,312
327,24	40,341
327,46	40,360
327,67	40,383
327,88	40,428
328,09	40,428
328,30	40,480
328,51	40,490
328,72	40,489
328,94	40,439
329,15	40,419
329,36	40,368
329,57	40,350
329,78	40,325
329,99	40,307
330,20	40,294
330,42	40,349
330,63	40,342
330,84	40,359
331,05	40,375
331,26	40,435
331,47	40,450
331,68	40,470
331,89	40,462
332,11	40,495
332,32	40,498
332,53	40,483
332,74	40,438
332,95	40,416
333,16	40,397
333,37	40,420
333,58	40,310
333,80	40,287
334,01	40,294
334,22	40,282
334,43	40,219
334,64	40,169
334,85	40,141
335,06	40,106
335,27	40,075
335,48	40,048
335,70	39,962
335,91	39,963
336,12	39,919
336,33	39,859
336,54	39,857
336,75	39,860
336,96	39,831
337,17	39,803
337,38	39,786
337,59	39,751
337,81	39,714
338,02	39,714
338,23	39,691
338,44	39,667
338,65	39,669
338,86	39,654
339,07	39,602
339,28	39,643
339,49	39,667
339,70	39,651
339,91	39,637
340,13	39,607
340,34	39,560
340,55	39,543
340,76	39,533
340,97	39,522
341,18	39,466
341,39	39,462
341,60	39,406
341,81	39,332
342,02	39,309
342,23	39,280
342,44	39,223
342,65	39,211
342,87	39,192
343,08	39,165
343,29	39,102
343,50	39,055
343,71	39,017
343,92	38,967
344,13	38,957
344,34	38,906
344,55	38,887
344,76	38,873
344,97	38,843
345,18	38,778
345,39	38,695
345,60	38,701
345,81	38,687
346,02	38,626
346,23	38,586
346,45	38,490
346,66	38,428
346,87	38,319
347,08	38,265
347,29	38,185
347,50	38,147
347,71	38,116
347,92	38,016
348,13	37,923
348,34	37,868
348,55	37,791
348,76	37,738
348,97	37,647
349,18	37,593
349,39	37,540
349,60	37,481
349,81	37,426
350,02	37,327
350,23	37,302
350,44	37,311
350,65	37,233
350,86	37,172
351,07	37,117
351,28	37,072
351,49	37,032
351,70	36,918
351,91	36,830
352,12	36,749
352,33	36,739
352,55	36,617
352,76	36,489
352,97	36,423
353,18	36,311
353,39	36,215
353,60	36,153
353,81	36,057
354,02	36,000
354,23	35,919
354,44	35,799
354,65	35,665
354,86	35,584
355,07	35,462
355,28	35,384
355,49	35,287
355,70	35,195
355,91	35,106
356,12	35,006
356,33	34,901
356,54	34,813
356,75	34,712
356,96	34,605
357,17	34,485
357,38	34,379
357,59	34,275
357,80	34,192
358,01	34,116
358,22	33,991
358,43	33,941
358,64	33,862
358,85	33,739
359,05	33,655
359,26	33,600
359,47	33,513
359,68	33,426
359,89	33,296
360,10	33,166
360,31	33,045
360,52	32,904
360,73	32,773
360,94	32,626
361,15	32,513
361,36	32,393
361,57	32,239
361,78	32,106
361,99	31,981
362,20	31,883
362,41	31,780
362,62	31,640
362,83	31,543
363,04	31,420
363,25	31,320
363,46	31,198
363,67	31,048
363,88	30,968
364,09	30,852
364,30	30,745
364,51	30,601
364,72	30,498
364,93	30,393
365,13	30,259
365,34	30,130
365,55	30,002
365,76	29,954
365,97	29,850
366,18	29,671
366,39	29,560
366,60	29,457
366,81	29,369
367,02	29,225
367,23	29,139
367,44	29,008
367,65	28,873
367,86	28,756
368,07	28,592
368,28	28,459
368,49	28,357
368,69	28,249
368,90	28,132
369,11	28,036
369,32	27,946
369,53	27,830
369,74	27,793
369,95	27,685
370,16	27,609
370,37	27,509
370,58	27,483
370,79	27,405
371,00	27,295
371,21	27,203
371,41	27,034
371,62	26,920
371,83	26,792
372,04	26,695
372,25	26,576
372,46	26,434
372,67	26,285
372,88	26,156
373,09	26,054
373,30	25,970
373,51	25,871
373,71	25,832
373,92	25,762
374,13	25,710
374,34	25,567
374,55	25,513
374,76	25,475
374,97	25,409
375,18	25,310
375,39	25,240
375,59	25,156
375,80	25,023
376,01	24,925
376,22	24,858
376,43	24,767
376,64	24,727
376,85	24,648
377,06	24,511
377,27	24,446
377,47	24,414
377,68	24,349
377,89	24,279
378,10	24,243
378,31	24,209
378,52	24,161
378,73	24,106
378,94	24,006
379,14	23,939
379,35	23,909
379,56	23,825
379,77	23,707
379,98	23,645
380,19	23,537
380,40	23,530
380,61	23,463
380,81	23,402
381,02	23,369
381,23	23,326
381,44	23,355
381,65	23,358
381,86	23,353
382,07	23,297
382,27	23,244
382,48	23,259
382,69	23,207
382,90	23,180
383,11	23,152
383,32	23,111
383,52	23,115
383,73	23,007
383,94	22,946
384,15	22,973
384,36	22,992
384,57	22,970
384,78	22,918
384,98	22,839
385,19	22,781
385,40	22,761
385,61	22,708
385,82	22,639
386,03	22,584
386,23	22,600
386,44	22,570
386,65	22,560
386,86	22,519
387,07	22,539
387,28	22,529
387,48	22,546
387,69	22,512
387,90	22,500
388,11	22,500
388,32	22,554
388,52	22,489
388,73	22,464
388,94	22,444
389,15	22,407
389,36	22,357
389,57	22,386
389,77	22,349
389,98	22,302
390,19	22,273
390,40	22,287
390,61	22,282
390,81	22,237
391,02	22,163
391,23	22,140
391,44	22,161
391,65	22,166
391,85	22,155
392,06	22,169
392,27	22,195
392,48	22,251
392,69	22,255
392,89	22,251
393,10	22,280
393,31	22,314
393,52	22,354
393,73	22,380
393,93	22,363
394,14	22,354
394,35	22,321
394,56	22,336
394,76	22,263
394,97	22,292
395,18	22,252
395,39	22,232
395,60	22,215
395,80	22,190
396,01	22,177
396,22	22,240
396,43	22,229
396,63	22,202
396,84	22,149
397,05	22,205
397,26	22,183
397,47	22,226
397,67	22,252
397,88	22,311
398,09	22,281
398,30	22,319
398,50	22,309
398,71	22,323
398,92	22,415
399,13	22,478
399,33	22,506
399,54	22,526
399,75	22,540
399,96	22,617
400,16	22,577
400,37	22,699
400,58	22,717
400,79	22,796
400,99	22,882
401,20	22,865
401,41	22,857
401,62	22,799
401,82	22,782
402,03	22,783
402,24	22,760
402,45	22,877
402,65	22,775
402,86	22,777
403,07	22,769
403,28	22,733
403,48	22,708
403,69	22,677
403,90	22,710
404,10	22,753
404,31	22,766
404,52	22,788
404,73	22,725
404,93	22,817
405,14	22,820
405,35	22,824
405,56	22,930
405,76	22,989
405,97	23,049
406,18	23,097
406,38	23,077
406,59	23,077
406,80	23,126
407,01	23,163
407,21	23,101
407,42	23,066
407,63	23,073
407,83	23,003
408,04	23,024
408,25	23,045
408,46	23,054
408,66	23,074
408,87	23,108
409,08	23,094
409,28	23,077
409,49	23,164
409,70	23,262
409,90	23,257
410,11	23,252
410,32	23,285
410,52	23,346
410,73	23,332
410,94	23,294
411,15	23,276
411,35	23,282
411,56	23,286
411,77	23,316
411,97	23,334
412,18	23,368
412,39	23,371
412,59	23,434
412,80	23,513
413,01	23,574
413,21	23,695
413,42	23,801
413,63	23,764
413,83	23,825
414,04	23,883
414,25	23,931
414,45	23,939
414,66	24,005
414,87	23,960
415,07	23,909
415,28	23,948
415,49	23,985
415,69	23,982
415,90	24,033
416,11	24,039
416,31	24,020
416,52	23,992
416,73	24,014
416,93	24,115
417,14	24,137
417,35	24,190
417,55	24,203
417,76	24,248
417,97	24,247
418,17	24,358
418,38	24,377
418,59	24,401
418,79	24,465
419,00	24,444
419,20	24,323
419,41	24,331
419,62	24,305
419,82	24,337
420,03	24,298
420,24	24,322
420,44	24,338
420,65	24,388
420,86	24,396
421,06	24,382
421,27	24,465
421,47	24,521
421,68	24,517
421,89	24,510
422,09	24,535
422,30	24,549
422,51	24,550
422,71	24,528
422,92	24,556
423,12	24,539
423,33	24,530
423,54	24,517
423,74	24,563
423,95	24,634
424,16	24,713
424,36	24,720
424,57	24,728
424,77	24,779
424,98	24,843
425,19	24,824
425,39	24,862
425,60	24,908
425,80	24,954
426,01	24,945
426,22	24,972
426,42	24,969
426,63	24,962
426,83	25,022
427,04	25,038
427,25	24,971
427,45	25,062
427,66	25,151
427,86	25,206
428,07	25,242
428,27	25,305
428,48	25,314
428,69	25,291
428,89	25,307
429,10	25,342
429,30	25,374
429,51	25,376
429,72	25,353
429,92	25,268
430,13	25,214
430,33	25,183
430,54	25,205
430,74	25,276
430,95	25,324
431,16	25,359
431,36	25,349
431,57	25,282
431,77	25,422
431,98	25,463
432,18	25,501
432,39	25,545
432,60	25,605
432,80	25,584
433,01	25,552
433,21	25,592
433,42	25,641
433,62	25,648
433,83	25,777
434,03	25,743
434,24	25,727
434,45	25,752
434,65	25,795
434,86	25,820
435,06	25,987
435,27	25,954
435,47	25,949
435,68	25,927
435,88	25,988
436,09	26,015
436,29	26,061
436,50	26,091
436,71	26,197
436,91	26,204
437,12	26,202
437,32	26,062
437,53	26,117
437,73	26,217
437,94	26,260
438,14	26,292
438,35	26,278
438,55	26,319
438,76	26,301
438,96	26,254
439,17	26,267
439,37	26,293
439,58	26,380
439,78	26,411
439,99	26,378
440,19	26,327
440,40	26,300
440,60	26,287
440,81	26,303
441,02	26,349
441,22	26,366
441,43	26,416
441,63	26,449
441,84	26,396
442,04	26,483
442,25	26,488
442,45	26,526
442,66	26,546
442,86	26,704
443,07	26,648
443,27	26,765
443,48	26,832
443,68	26,926
443,89	27,039
444,09	27,133
444,30	27,095
444,50	27,195
444,70	27,213
444,91	27,245
445,11	27,150
445,32	27,180
445,52	27,143
445,73	27,090
445,93	27,078
446,14	27,097
446,34	26,993
446,55	27,038
446,75	26,975
446,96	27,086
447,16	27,138
447,37	27,023
447,57	27,087
447,78	27,165
447,98	27,308
448,19	27,314
448,39	27,147
448,60	27,299
448,80	27,274
449,00	27,293
449,21	27,342
449,41	27,268
449,62	27,348
449,82	27,426
450,03	27,354
450,23	27,379
450,44	27,198
450,64	27,282
450,85	27,340
451,05	27,487
451,25	27,471
451,46	27,441
451,66	27,427
451,87	27,544
452,07	27,432
452,28	27,404
452,48	27,413
452,69	27,453
452,89	27,424
453,09	27,286
453,30	27,112
453,50	27,203
453,71	27,217
453,91	27,281
454,12	27,255
454,32	27,291
454,52	27,309
454,73	27,293
454,93	27,300
455,14	27,296
455,34	27,252
455,55	27,280
455,75	27,202
455,95	27,086
456,16	27,106
456,36	26,989
456,57	26,833
456,77	26,877
456,98	26,763
457,18	26,697
457,38	26,709
457,59	26,816
457,79	26,865
458,00	26,861
458,20	26,919
458,40	26,868
458,61	26,912
458,81	27,075
459,02	27,006
459,22	27,027
459,42	27,226
459,63	27,158
459,83	27,098
460,04	27,041
460,24	27,030
460,44	26,970
460,65	27,056
460,85	27,030
461,06	26,994
461,26	27,023
461,46	27,013
461,67	27,031
461,87	27,064
462,07	27,036
462,28	27,061
462,48	27,020
462,69	27,041
462,89	27,061
463,09	27,012
463,30	26,939
463,50	26,903
463,70	26,903
463,91	26,811
464,11	26,818
464,32	26,808
464,52	26,782
464,72	26,754
464,93	26,737
465,13	26,634
465,33	26,633
465,54	26,686
465,74	26,749
465,94	26,790
466,15	26,826
466,35	26,771
466,55	26,768
466,76	26,691
466,96	26,774
467,17	26,810
467,37	26,764
467,57	26,866
467,78	26,869
467,98	26,756
468,18	26,717
468,39	26,734
468,59	26,835
468,79	26,897
469,00	26,924
469,20	26,864
469,40	26,846
469,61	26,846
469,81	26,859
470,01	26,862
470,22	26,846
470,42	26,919
470,62	26,842
470,83	26,770
471,03	26,777
471,23	26,749
471,44	26,804
471,64	26,866
471,84	26,895
472,05	26,867
472,25	26,892
472,45	26,983
472,65	26,923
472,86	27,012
473,06	27,179
473,26	27,189
473,47	27,295
473,67	27,370
473,87	27,458
474,08	27,564
474,28	27,586
474,48	27,614
474,69	27,656
474,89	27,736
475,09	27,740
475,29	27,654
475,50	27,683
475,70	27,678
475,90	27,679
476,11	27,621
476,31	27,628
476,51	27,668
476,72	27,693
476,92	27,735
477,12	27,730
477,32	27,717
477,53	27,726
477,73	27,794
477,93	27,862
478,14	27,858
478,34	27,820
478,54	27,826
478,74	27,840
478,95	27,852
479,15	27,826
479,35	27,821
479,55	27,913
479,76	27,920
479,96	27,899
480,16	27,869
480,37	27,878
480,57	27,936
480,77	27,951
480,97	27,941
481,18	27,996
481,38	28,077
481,58	28,067
481,78	28,043
481,99	28,064
482,19	28,041
482,39	28,094
482,59	28,118
482,80	28,152
483,00	28,174
483,20	28,155
483,40	28,316
483,61	28,288
483,81	28,369
484,01	28,421
484,21	28,450
484,42	28,512
484,62	28,494
484,82	28,554
485,02	28,536
485,23	28,562
485,43	28,686
485,63	28,528
485,83	28,536
486,03	28,609
486,24	28,646
486,44	28,694
486,64	28,716
486,84	28,806
487,05	28,773
487,25	28,848
487,45	28,899
487,65	28,886
487,85	28,891
488,06	28,913
488,26	28,930
488,46	28,881
488,66	28,877
488,87	28,865
489,07	28,935
489,27	28,985
489,47	28,979
489,67	29,069
489,88	29,083
490,08	29,082
490,28	29,137
490,48	29,067
490,68	29,115
490,89	29,204
491,09	29,271
491,29	29,265
491,49	29,307
491,69	29,343
491,90	29,244
492,10	29,279
492,30	29,338
492,50	29,375
492,70	29,503
492,90	29,516
493,11	29,572
493,31	29,614
493,51	29,576
493,71	29,607
493,91	29,644
494,12	29,690
494,32	29,755
494,52	29,821
494,72	29,807
494,92	29,816
495,12	29,889
495,33	29,783
495,53	29,810
495,73	29,873
495,93	29,859
496,13	29,949
496,33	30,028
496,54	30,006
496,74	29,985
496,94	30,053
497,14	30,081
497,34	30,078
497,54	30,130
497,75	30,177
497,95	30,142
498,15	30,227
498,35	30,222
498,55	30,171
498,75	30,193
498,95	30,272
499,16	30,313
499,36	30,293
499,56	30,273
499,76	30,364
499,96	30,331
500,16	30,433
500,36	30,378
500,57	30,304
500,77	30,418
500,97	30,474
501,17	30,499
501,37	30,465
501,57	30,439
501,77	30,530
501,97	30,526
502,18	30,538
502,38	30,497
502,58	30,476
502,78	30,587
502,98	30,504
503,18	30,425
503,38	30,440
503,58	30,423
503,79	30,477
503,99	30,428
504,19	30,416
504,39	30,410
504,59	30,469
504,79	30,546
504,99	30,518
505,19	30,530
505,39	30,603
505,59	30,595
505,80	30,621
506,00	30,628
506,20	30,689
506,40	30,703
506,60	30,765
506,80	30,779
507,00	30,754
507,20	30,757
507,40	30,808
507,60	30,842
507,81	30,839
508,01	30,865
508,21	30,936
508,41	30,936
508,61	30,981
508,81	30,990
509,01	30,981
509,21	31,086
509,41	31,124
509,61	31,156
509,81	31,197
510,01	31,219
510,21	31,282
510,42	31,277
510,62	31,285
510,82	31,339
511,02	31,401
511,22	31,408
511,42	31,369
511,62	31,444
511,82	31,412
512,02	31,442
512,22	31,451
512,42	31,508
512,62	31,508
512,82	31,513
513,02	31,459
513,22	31,402
513,42	31,454
513,62	31,546
513,83	31,505
514,03	31,609
514,23	31,573
514,43	31,572
514,63	31,582
514,83	31,600
515,03	31,655
515,23	31,649
515,43	31,633
515,63	31,583
515,83	31,570
516,03	31,581
516,23	31,537
516,43	31,531
516,63	31,588
516,83	31,561
517,03	31,556
517,23	31,640
517,43	31,664
517,63	31,741
517,83	31,792
518,03	31,789
518,23	31,853
518,43	31,929
518,63	31,944
518,83	31,933
519,03	32,004
519,23	32,069
519,43	32,045
519,63	32,115
519,83	32,141
520,03	32,167
520,23	32,249
520,43	32,322
520,63	32,267
520,83	32,333
521,03	32,387
521,23	32,347
521,43	32,333
521,63	32,332
521,83	32,336
522,03	32,326
522,23	32,298
522,43	32,297
522,63	32,305
522,83	32,393
523,03	32,409
523,23	32,411
523,43	32,508
523,63	32,593
523,83	32,600
524,03	32,732
524,23	32,780
524,43	32,850
524,63	32,854
524,83	32,771
525,03	32,781
525,23	32,781
525,43	32,806
525,63	32,809
525,83	32,839
526,03	32,893
526,23	32,882
526,43	32,911
526,63	32,958
526,83	32,997
527,03	33,111
527,23	33,121
527,43	33,181
527,63	33,225
527,83	33,236
528,02	33,264
528,22	33,277
528,42	33,235
528,62	33,193
528,82	33,164
529,02	33,205
529,22	33,145
529,42	33,224
529,62	33,253
529,82	33,290
530,02	33,332
530,22	33,331
530,42	33,356
530,62	33,411
530,82	33,556
531,02	33,710
531,22	33,737
531,41	33,780
531,61	33,725
531,81	33,710
532,01	33,744
532,21	33,772
532,41	33,785
532,61	33,882
532,81	33,917
533,01	33,934
533,21	33,894
533,41	33,976
533,61	34,070
533,80	34,209
534,00	34,243
534,20	34,281
534,40	34,244
534,60	34,190
534,80	34,156
535,00	34,166
535,20	34,158
535,40	34,222
535,60	34,248
535,80	34,240
535,99	34,155
536,19	34,229
536,39	34,266
536,59	34,392
536,79	34,525
536,99	34,612
537,19	34,624
537,39	34,667
537,59	34,683
537,78	34,616
537,98	34,611
538,18	34,651
538,38	34,614
538,58	34,610
538,78	34,614
538,98	34,661
539,18	34,676
539,37	34,732
539,57	34,818
539,77	34,812
539,97	34,839
540,17	34,968
540,37	35,094
540,57	35,157
540,77	35,170
540,96	35,110
541,16	35,082
541,36	35,078
541,56	35,053
541,76	35,004
541,96	35,021
542,16	35,026
542,35	35,038
542,55	35,001
542,75	34,937
542,95	34,978
543,15	35,085
543,35	35,094
543,55	35,134
543,74	35,206
543,94	35,147
544,14	35,254
544,34	35,560
544,54	35,911
544,74	36,333
544,93	36,953
545,13	37,486
545,33	37,937
545,53	38,316
545,73	38,636
545,93	38,876
546,12	39,155
546,32	39,261
546,52	39,220
546,72	38,995
546,92	38,592
547,11	38,072
547,31	37,626
547,51	37,199
547,71	36,953
547,91	36,645
548,11	36,438
548,30	36,385
548,50	36,303
548,70	36,157
548,90	36,070
549,10	36,065
549,29	36,193
549,49	36,191
549,69	36,226
549,89	36,240
550,09	36,286
550,28	36,312
550,48	36,256
550,68	36,272
550,88	36,320
551,08	36,313
551,27	36,343
551,47	36,299
551,67	36,332
551,87	36,282
552,07	36,256
552,26	36,198
552,46	36,200
552,66	36,221
552,86	36,219
553,05	36,101
553,25	36,145
553,45	36,182
553,65	36,184
553,85	36,137
554,04	36,204
554,24	36,214
554,44	36,266
554,64	36,301
554,83	36,356
555,03	36,352
555,23	36,455
555,43	36,520
555,62	36,535
555,82	36,518
556,02	36,534
556,22	36,533
556,41	36,598
556,61	36,599
556,81	36,575
557,01	36,574
557,21	36,615
557,40	36,584
557,60	36,560
557,80	36,565
557,99	36,565
558,19	36,551
558,39	36,618
558,59	36,658
558,78	36,766
558,98	36,797
559,18	36,747
559,38	36,689
559,57	36,749
559,77	36,641
559,97	36,600
560,17	36,641
560,36	36,687
560,56	36,657
560,76	36,562
560,95	36,447
561,15	36,543
561,35	36,568
561,55	36,668
561,74	36,650
561,94	36,723
562,14	36,739
562,34	36,760
562,53	36,709
562,73	36,646
562,93	36,588
563,12	36,654
563,32	36,617
563,52	36,595
563,71	36,484
563,91	36,509
564,11	36,496
564,31	36,528
564,50	36,549
564,70	36,578
564,90	36,624
565,09	36,666
565,29	36,705
565,49	36,633
565,68	36,635
565,88	36,752
566,08	36,705
566,27	36,792
566,47	36,834
566,67	36,750
566,87	36,781
567,06	36,790
567,26	36,784
567,46	36,676
567,65	36,755
567,85	36,835
568,05	36,843
568,24	36,820
568,44	36,723
568,64	36,731
568,83	36,773
569,03	36,782
569,23	36,742
569,42	36,773
569,62	36,813
569,82	36,835
570,01	36,754
570,21	36,680
570,41	36,770
570,60	36,803
570,80	36,748
571,00	36,816
571,19	36,745
571,39	36,755
571,58	36,802
571,78	36,804
571,98	36,704
572,17	36,703
572,37	36,688
572,57	36,650
572,76	36,582
572,96	36,580
573,16	36,523
573,35	36,562
573,55	36,510
573,74	36,496
573,94	36,461
574,14	36,537
574,33	36,554
574,53	36,587
574,73	36,621
574,92	36,669
575,12	36,642
575,32	36,669
575,51	36,692
575,71	36,810
575,90	36,857
576,10	36,947
576,30	36,926
576,49	37,045
576,69	37,083
576,88	37,109
577,08	37,132
577,28	37,210
577,47	37,262
577,67	37,355
577,86	37,334
578,06	37,373
578,26	37,430
578,45	37,501
578,65	37,410
578,84	37,442
579,04	37,410
579,24	37,346
579,43	37,280
579,63	37,179
579,82	37,120
580,02	37,079
580,22	36,923
580,41	36,816
580,61	36,711
580,80	36,673
581,00	36,578
581,19	36,447
581,39	36,499
581,59	36,490
581,78	36,470
581,98	36,351
582,17	36,361
582,37	36,362
582,56	36,388
582,76	36,436
582,96	36,419
583,15	36,467
583,35	36,566
583,54	36,575
583,74	36,569
583,93	36,532
584,13	36,531
584,33	36,467
584,52	36,495
584,72	36,387
584,91	36,264
585,11	36,247
585,30	36,184
585,50	36,133
585,69	36,127
585,89	36,062
586,08	36,051
586,28	36,072
586,48	36,059
586,67	36,042
586,87	36,052
587,06	36,114
587,26	36,136
587,45	36,127
587,65	36,059
587,84	35,939
588,04	36,027
588,23	36,093
588,43	36,028
588,62	35,989
588,82	35,950
589,01	35,950
589,21	35,990
589,40	35,948
589,60	35,978
589,79	36,026
589,99	36,093
590,19	36,039
590,38	35,998
590,58	36,100
590,77	36,140
590,97	36,106
591,16	36,139
591,36	36,041
591,55	36,032
591,75	36,003
591,94	35,977
592,14	35,917
592,33	35,864
592,53	35,905
592,72	35,836
592,92	35,808
593,11	35,833
593,31	35,821
593,50	35,903
593,69	35,981
593,89	35,950
594,08	35,949
594,28	35,951
594,47	36,018
594,67	35,983
594,86	36,012
595,06	35,988
595,25	35,982
595,45	35,996
595,64	35,930
595,84	35,978
596,03	35,971
596,23	36,001
596,42	36,019
596,62	36,008
596,81	36,031
597,01	35,991
597,20	36,051
597,39	36,033
597,59	36,031
597,78	36,018
597,98	35,848
598,17	35,919
598,37	35,907
598,56	35,959
598,76	35,939
598,95	35,842
599,15	35,815
599,34	35,792
599,53	35,741
599,73	35,679
599,92	35,650
600,12	35,747
600,31	35,720
600,51	35,734
600,70	35,720
600,89	35,707
601,09	35,772
601,28	35,850
601,48	35,801
601,67	35,828
601,87	35,859
602,06	35,910
602,25	35,896
602,45	35,805
602,64	35,802
602,84	35,710
603,03	35,689
603,23	35,629
603,42	35,582
603,61	35,537
603,81	35,544
604,00	35,565
604,20	35,556
604,39	35,540
604,58	35,579
604,78	35,510
604,97	35,547
605,17	35,584
605,36	35,618
605,55	35,605
605,75	35,618
605,94	35,701
606,14	35,649
606,33	35,584
606,52	35,540
606,72	35,556
606,91	35,556
607,11	35,560
607,30	35,535
607,49	35,536
607,69	35,570
607,88	35,609
608,07	35,526
608,27	35,514
608,46	35,530
608,66	35,494
608,85	35,468
609,04	35,480
609,24	35,437
609,43	35,379
609,62	35,373
609,82	35,321
610,01	35,323
610,21	35,277
610,40	35,304
610,59	35,284
610,79	35,371
610,98	35,362
611,17	35,338
611,37	35,365
611,56	35,451
611,75	35,418
611,95	35,353
612,14	35,358
612,33	35,373
612,53	35,317
612,72	35,292
612,91	35,138
613,11	35,065
613,30	35,067
613,49	34,995
613,69	34,893
613,88	34,933
614,07	34,954
614,27	34,934
614,46	34,911
614,65	34,952
614,85	34,950
615,04	35,028
615,23	35,025
615,43	34,947
615,62	35,044
615,81	35,052
616,01	34,907
616,20	34,888
616,39	34,838
616,59	34,903
616,78	34,848
616,97	34,832
617,17	34,815
617,36	34,842
617,55	34,922
617,75	34,888
617,94	34,913
618,13	35,048
618,32	35,089
618,52	35,087
618,71	35,062
618,90	35,004
619,10	35,011
619,29	34,993
619,48	35,008
619,67	34,920
619,87	34,932
620,06	34,872
620,25	34,755
620,45	34,691
620,64	34,715
620,83	34,646
621,02	34,716
621,22	34,768
621,41	34,746
621,60	34,745
621,80	34,830
621,99	34,778
622,18	34,745
622,37	34,707
622,57	34,688
622,76	34,664
622,95	34,707
623,14	34,687
623,34	34,636
623,53	34,469
623,72	34,453
623,92	34,450
624,11	34,414
624,30	34,408
624,49	34,466
624,69	34,502
624,88	34,428
625,07	34,372
625,26	34,466
625,46	34,474
625,65	34,637
625,84	34,549
626,03	34,472
626,23	34,478
626,42	34,505
626,61	34,448
626,80	34,399
626,99	34,431
627,19	34,399
627,38	34,259
627,57	34,225
627,76	34,211
627,96	34,204
628,15	34,159
628,34	34,099
628,53	34,057
628,72	34,046
628,92	34,016
629,11	34,049
629,30	34,072
629,49	34,086
629,69	33,989
629,88	34,008
630,07	33,896
630,26	33,930
630,45	33,947
630,65	33,941
630,84	33,947
631,03	33,957
631,22	33,914
631,41	33,873
631,61	33,806
631,80	33,858
631,99	33,815
632,18	33,947
632,37	33,933
632,57	34,217
632,76	34,206
632,95	34,178
633,14	34,209
633,33	34,214
633,53	34,187
633,72	34,206
633,91	34,179
634,10	34,182
634,29	34,164
634,48	34,178
634,68	33,854
634,87	33,815
635,06	33,794
635,25	33,684
635,44	33,604
635,63	33,601
635,83	33,539
636,02	33,539
636,21	33,474
636,40	33,424
636,59	33,391
636,78	33,437
636,98	33,447
637,17	33,420
637,36	33,447
637,55	33,444
637,74	33,408
637,93	33,438
638,13	33,392
638,32	33,435
638,51	33,443
638,70	33,415
638,89	33,365
639,08	33,371
639,27	33,497
639,47	33,484
639,66	33,594
639,85	33,527
640,04	33,509
640,23	33,475
640,42	33,446
640,61	33,411
640,80	33,341
641,00	33,321
641,19	33,273
641,38	33,216
641,57	33,250
641,76	33,106
641,95	33,179
642,14	33,167
642,33	33,218
642,52	33,133
642,72	33,237
642,91	33,259
643,10	33,208
643,29	33,197
643,48	33,088
643,67	32,993
643,86	33,043
644,05	33,022
644,24	33,039
644,44	32,967
644,63	33,002
644,82	32,878
645,01	32,882
645,20	32,880
645,39	32,942
645,58	33,010
645,77	33,061
645,96	33,029
646,15	33,040
646,34	32,988
646,54	32,990
646,73	32,986
646,92	32,930
647,11	32,904
647,30	32,913
647,49	32,784
647,68	32,732
647,87	32,676
648,06	32,665
648,25	32,626
648,44	32,611
648,63	32,621
648,82	32,573
649,01	32,603
649,21	32,594
649,40	32,671
649,59	32,730
649,78	32,799
649,97	32,815
650,16	32,791
650,35	32,797
650,54	32,766
650,73	32,724
650,92	32,783
651,11	32,735
651,30	32,792
651,49	32,765
651,68	32,750
651,87	32,683
652,06	32,681
652,25	32,687
652,44	32,695
652,63	32,704
652,82	32,730
653,01	32,698
653,20	32,730
653,39	32,701
653,58	32,655
653,78	32,639
653,97	32,612
654,16	32,567
654,35	32,557
654,54	32,536
654,73	32,554
654,92	32,517
655,11	32,420
655,30	32,383
655,49	32,324
655,68	32,283
655,87	32,338
656,06	32,266
656,25	32,256
656,44	32,149
656,63	32,136
656,82	32,090
657,01	32,130
657,20	32,174
657,39	32,211
657,58	32,176
657,77	32,181
657,96	32,115
658,15	32,158
658,34	32,211
658,53	32,319
658,72	32,293
658,91	32,287
659,10	32,214
659,29	32,170
659,48	32,170
659,66	32,170
659,85	32,108
660,04	32,142
660,23	32,168
660,42	32,113
660,61	32,109
660,80	32,088
660,99	32,034
661,18	32,110
661,37	32,124
661,56	32,095
661,75	32,124
661,94	32,167
662,13	32,116
662,32	32,127
662,51	32,214
662,70	32,190
662,89	32,199
663,08	32,258
663,27	32,179
663,46	32,227
663,65	32,238
663,84	32,266
664,03	32,250
664,21	32,246
664,40	32,306
664,59	32,173
664,78	32,176
664,97	32,180
665,16	32,270
665,35	32,280
665,54	32,296
665,73	32,284
665,92	32,336
666,11	32,306
666,30	32,344
666,49	32,271
666,68	32,387
666,86	32,325
667,05	32,224
667,24	32,097
667,43	32,142
667,62	32,150
667,81	32,152
668,00	32,108
668,19	32,071
668,38	32,059
668,57	32,082
668,76	32,031
668,94	32,119
669,13	32,215
669,32	32,232
669,51	32,125
669,70	32,011
669,89	31,983
670,08	31,927
670,27	32,006
670,46	31,973
670,65	31,934
670,83	31,918
671,02	31,827
671,21	31,822
671,40	31,801
671,59	31,878
671,78	31,898
671,97	31,906
672,16	31,861
672,34	31,800
672,53	31,741
672,72	31,679
672,91	31,575
673,10	31,635
673,29	31,555
673,48	31,559
673,67	31,542
673,85	31,571
674,04	31,564
674,23	31,595
674,42	31,613
674,61	31,622
674,80	31,619
674,99	31,698
675,17	31,654
675,36	31,724
675,55	31,716
675,74	31,689
675,93	31,691
676,12	31,675
676,30	31,670
676,49	31,664
676,68	31,710
676,87	31,787
677,06	31,785
677,25	31,811
677,43	31,731
677,62	31,789
677,81	31,720
678,00	31,647
678,19	31,617
678,38	31,588
678,56	31,533
678,75	31,464
678,94	31,361
679,13	31,332
679,32	31,296
679,50	31,319
679,69	31,243
679,88	31,269
680,07	31,297
680,26	31,347
680,45	31,390
680,63	31,452
680,82	31,379
681,01	31,363
681,20	31,321
681,39	31,296
681,57	31,273
681,76	31,253
681,95	31,347
682,14	31,358
682,33	31,277
682,51	31,248
682,70	31,113
682,89	31,209
683,08	31,266
683,26	31,292
683,45	31,292
683,64	31,330
683,83	31,347
684,02	31,311
684,20	31,316
684,39	31,334
684,58	31,271
684,77	31,320
684,95	31,270
685,14	31,201
685,33	31,179
685,52	31,145
685,71	31,095
685,89	31,051
686,08	30,922
686,27	30,801
686,46	30,791
686,64	30,742
686,83	30,683
687,02	30,674
687,21	30,637
687,39	30,629
687,58	30,615
687,77	30,560
687,96	30,530
688,14	30,606
688,33	30,644
688,52	30,643
688,70	30,702
688,89	30,752
689,08	30,755
689,27	30,774
689,45	30,744
689,64	30,780
689,83	30,895
690,02	30,874
690,20	30,874
690,39	30,915
690,58	30,907
690,77	30,898
690,95	30,865
691,14	30,920
691,33	30,914
691,51	30,921
691,70	30,870
691,89	30,775
692,08	30,809
692,26	30,788
692,45	30,749
692,64	30,712
692,82	30,743
693,01	30,750
693,20	30,676
693,38	30,693
693,57	30,620
693,76	30,586
693,95	30,622
694,13	30,559
694,32	30,584
694,51	30,539
694,69	30,483
694,88	30,372
695,07	30,328
695,25	30,259
695,44	30,263
695,63	30,317
695,81	30,343
696,00	30,282
696,19	30,366
696,37	30,299
696,56	30,282
696,75	30,363
696,93	30,374
697,12	30,418
697,31	30,515
697,49	30,503
697,68	30,515
697,87	30,530
698,05	30,526
698,24	30,437
698,43	30,403
698,61	30,484
698,80	30,465
698,99	30,527
699,17	30,541
699,36	30,562
699,55	30,519
699,73	30,494
699,92	30,530
700,11	30,567
700,29	30,622
700,48	30,629
700,66	30,590
700,85	30,596
701,04	30,569
701,22	30,548
701,41	30,471
701,60	30,493
701,78	30,512
701,97	30,441
702,16	30,499
702,34	30,508
702,53	30,585
702,71	30,615
702,90	30,597
703,09	30,570
703,27	30,536
703,46	30,550
703,64	30,544
703,83	30,615
704,02	30,633
704,20	30,544
704,39	30,483
704,57	30,436
704,76	30,424
704,95	30,385
705,13	30,443
705,32	30,507
705,50	30,479
705,69	30,504
705,88	30,416
706,06	30,379
706,25	30,400
706,43	30,400
706,62	30,337
706,81	30,346
706,99	30,387
707,18	30,355
707,36	30,328
707,55	30,344
707,73	30,271
707,92	30,353
708,11	30,382
708,29	30,447
708,48	30,518
708,66	30,574
708,85	30,518
709,03	30,542
709,22	30,554
709,41	30,538
709,59	30,594
709,78	30,601
709,96	30,521
710,15	30,505
710,33	30,378
710,52	30,432
710,71	30,448
710,89	30,467
711,08	30,446
711,26	30,519
711,45	30,497
711,63	30,456
711,82	30,453
712,00	30,511
712,19	30,480
712,37	30,485
712,56	30,364
712,74	30,351
712,93	30,354
713,12	30,393
713,30	30,243
713,49	30,315
713,67	30,327
713,86	30,377
714,04	30,292
714,23	30,299
714,41	30,390
714,60	30,377
714,78	30,405
714,97	30,329
715,15	30,283
715,34	30,293
715,52	30,294
715,71	30,297
715,89	30,331
716,08	30,346
716,26	30,266
716,45	30,176
716,63	30,179
716,82	30,059
717,00	30,096
717,19	30,000
717,37	29,973
717,56	29,913
717,74	29,819
717,93	29,685
718,11	29,614
718,30	29,616
718,48	29,628
718,67	29,576
718,85	29,519
719,04	29,427
719,22	29,452
719,41	29,435
719,59	29,413
719,78	29,428
719,96	29,441
720,14	29,428
720,33	29,482
720,51	29,573
720,70	29,629
720,88	29,716
721,07	29,800
721,25	29,846
721,44	29,922
721,62	29,942
721,81	29,930
721,99	29,977
722,18	30,052
722,36	30,089
722,54	30,033
722,73	30,050
722,91	29,996
723,10	29,954
723,28	29,889
723,47	29,821
723,65	29,760
723,84	29,892
724,02	29,894
724,20	29,910
724,39	29,879
724,57	29,852
724,76	29,828
724,94	29,932
725,13	29,976
725,31	29,992
725,49	30,040
725,68	30,015
725,86	29,985
726,05	29,889
726,23	29,915
726,41	29,918
726,60	29,933
726,78	29,951
726,97	29,889
727,15	29,795
727,34	29,807
727,52	29,755
727,70	29,758
727,89	29,769
728,07	29,737
728,26	29,622
728,44	29,550
728,62	29,533
728,81	29,526
728,99	29,596
729,17	29,707
729,36	29,715
729,54	29,718
729,73	29,748
729,91	29,683
730,09	29,798
730,28	29,805
730,46	29,960
730,65	29,973
730,83	29,942
731,01	29,865
731,20	29,856
731,38	29,901
731,56	29,931
731,75	29,991
731,93	29,979
732,12	30,125
732,30	30,220
732,48	30,150
732,67	30,152
732,85	30,197
733,03	30,262
733,22	30,272
733,40	30,242
733,58	30,261
733,77	30,268
733,95	30,321
734,13	30,128
734,32	30,177
734,50	30,173
734,68	30,059
734,87	30,039
735,05	30,076
735,23	30,099
735,42	30,113
735,60	30,119
735,78	30,080
735,97	30,083
736,15	30,188
736,33	30,178
736,52	30,189
736,70	30,271
736,88	30,295
737,07	30,255
737,25	30,236
737,43	30,323
737,62	30,337
737,80	30,316
737,98	30,362
738,17	30,304
738,35	30,172
738,53	30,270
738,72	30,314
738,90	30,280
739,08	30,377
739,26	30,440
739,45	30,399
739,63	30,400
739,81	30,458
740,00	30,366
740,18	30,337
740,36	30,466
740,54	30,431
740,73	30,388
740,91	30,487
741,09	30,393
741,28	30,286
741,46	30,233
741,64	30,212
741,82	30,221
742,01	30,176
742,19	30,195
742,37	30,180
742,56	30,151
742,74	30,199
742,92	30,075
743,10	30,078
743,29	30,049
743,47	30,047
743,65	29,989
743,83	29,991
744,02	30,087
744,20	30,136
744,38	30,154
744,56	30,107
744,75	30,085
744,93	30,083
745,11	30,081
745,29	30,207
745,48	30,208
745,66	30,351
745,84	30,385
746,02	30,344
746,21	30,290
746,39	30,213
746,57	30,286
746,75	30,263
746,94	30,318
747,12	30,307
747,30	30,346
747,48	30,255
747,66	30,211
747,85	30,165
748,03	30,172
748,21	30,282
748,39	30,281
748,58	30,181
748,76	30,138
748,94	30,071
749,12	30,082
749,30	29,922
749,49	30,030
749,67	29,940
749,85	29,967
750,03	29,960
750,21	29,883
750,40	29,872
750,58	29,948
750,76	29,928
750,94	29,936
751,12	29,962
751,31	30,047
751,49	30,068
751,67	30,049
751,85	29,972
752,03	29,919
752,22	29,846
752,40	29,865
752,58	29,811
752,76	29,946
752,94	29,957
753,12	29,870
753,31	29,811
753,49	29,785
753,67	29,806
753,85	29,749
754,03	29,687
754,21	29,779
754,40	29,848
754,58	29,850
754,76	29,768
754,94	29,862
755,12	29,917
755,30	29,912
755,49	29,954
755,67	29,950
755,85	29,938
756,03	30,033
756,21	30,028
756,39	29,833
756,57	29,784
756,76	29,841
756,94	29,715
757,12	29,641
757,30	29,654
757,48	29,627
757,66	29,646
757,84	29,734
758,02	29,608
758,21	29,488
758,39	29,587
758,57	29,520
758,75	29,275
758,93	29,203
759,11	29,080
759,29	28,968
759,47	28,697
759,66	28,467
759,84	28,292
760,02	28,191
760,20	28,097
760,38	27,865
760,56	27,794
760,74	27,853
760,92	27,678
761,10	27,715
761,29	27,645
761,47	27,696
761,65	27,757
761,83	27,749
762,01	27,764
762,19	27,780
762,37	27,873
762,55	27,964
762,73	27,954
762,91	28,129
763,09	28,050
763,28	28,138
763,46	28,204
763,64	28,216
763,82	28,234
764,00	28,244
764,18	28,213
764,36	28,237
764,54	28,145
764,72	28,111
764,90	28,106
765,08	28,253
765,26	28,237
765,44	28,231
765,62	28,320
765,80	28,368
765,99	28,455
766,17	28,561
766,35	28,505
766,53	28,633
766,71	28,713
766,89	28,759
767,07	28,747
767,25	28,937
767,43	29,021
767,61	28,980
767,79	29,005
767,97	29,034
768,15	29,050
768,33	29,182
768,51	29,197
768,69	29,176
768,87	29,183
769,05	29,171
769,23	29,004
769,41	29,020
769,59	29,114
769,77	29,133
769,95	29,125
770,13	29,141
770,31	29,146
770,49	29,211
770,67	29,283
770,85	29,359
771,03	29,400
771,21	29,388
771,39	29,396
771,57	29,410
771,75	29,445
771,93	29,478
772,11	29,477
772,29	29,428
772,47	29,422
772,65	29,401
772,83	29,408
773,01	29,459
773,19	29,498
773,37	29,483
773,55	29,610
773,73	29,571
773,91	29,511
774,09	29,530
774,27	29,522
774,45	29,365
774,63	29,368
774,81	29,315
774,99	29,258
775,17	29,261
775,35	29,219
775,53	29,047
775,71	29,070
775,89	29,107
776,07	29,028
776,25	29,057
776,43	29,184
776,61	29,199
776,79	29,134
776,97	29,205
777,15	29,176
777,33	29,198
777,51	29,213
777,69	29,189
777,87	29,151
778,04	29,162
778,22	29,173
778,40	29,123
778,58	29,097
778,76	29,137
778,94	29,086
779,12	29,089
779,30	29,010
779,48	28,982
779,66	29,064
779,84	29,029
780,02	29,035
780,20	29,067
780,38	29,152
780,56	29,232
780,73	29,311
780,91	29,219
781,09	29,281
781,27	29,349
781,45	29,468
781,63	29,356
781,81	29,401
781,99	29,424
782,17	29,411
782,35	29,300
782,53	29,230
782,70	29,167
782,88	29,163
783,06	29,124
783,24	29,083
783,42	28,879
783,60	28,831
783,78	28,823
783,96	28,813
784,14	28,792
784,31	28,806
784,49	28,862
784,67	28,916
784,85	28,924
785,03	28,874
785,21	28,894
785,39	29,018
785,57	29,237
785,74	29,301
785,92	29,404
786,10	29,365
786,28	29,407
786,46	29,343
786,64	29,258
786,82	29,249
786,99	29,308
787,17	29,319
787,35	29,261
787,53	29,140
787,71	29,159
787,89	29,068
788,07	29,028
788,24	28,883
788,42	28,917
788,60	28,917
788,78	28,894
788,96	28,774
789,14	28,750
789,31	28,793
789,49	28,837
789,67	28,750
789,85	28,568
790,03	28,563
790,21	28,653
790,38	28,569
790,56	28,570
790,74	28,575
790,92	28,696
791,10	28,606
791,28	28,570
791,45	28,504
791,63	28,567
791,81	28,715
791,99	28,754
792,17	28,720
792,34	28,730
792,52	28,692
792,70	28,823
792,88	28,748
793,06	28,809
793,23	28,764
793,41	28,707
793,59	28,600
793,77	28,656
793,95	28,672
794,12	28,691
794,30	28,719
794,48	28,695
794,66	28,530
794,84	28,582
795,01	28,621
795,19	28,754
795,37	28,753
795,55	28,806
795,72	28,669
795,90	28,515
796,08	28,516
796,26	28,480
796,44	28,503
796,61	28,576
796,79	28,653
796,97	28,684
797,15	28,691
797,32	28,747
797,50	28,759
797,68	28,797
797,86	28,877
798,03	28,876
798,21	28,976
798,39	28,982
798,57	28,966
798,74	28,892
798,92	28,776
799,10	28,701
799,28	28,677
799,45	28,647
799,63	28,686
799,81	28,737
799,98	28,755
800,16	28,762
800,34	28,705
800,52	28,796
800,69	28,662
800,87	28,849
801,05	28,794
801,23	28,689
801,40	28,712
801,58	28,703
801,76	28,751
801,93	28,688
802,11	28,540
802,29	28,619
802,47	28,619
802,64	28,951
802,82	28,893
803,00	29,069
803,17	29,157
803,35	29,123
803,53	29,049
803,70	29,051
803,88	29,142
804,06	29,239
804,24	29,178
804,41	29,161
804,59	28,981
804,77	28,932
804,94	28,785
805,12	28,777
805,30	28,893
805,47	28,947
805,65	28,936
805,83	28,886
806,00	28,747
806,18	28,795
806,36	28,726
806,53	28,559
806,71	28,566
806,89	28,463
807,06	28,506
807,24	28,291
807,42	28,408
807,59	28,340
807,77	28,341
807,95	28,507
808,12	28,461
808,30	28,624
808,48	28,789
808,65	28,766
808,83	28,811
809,01	28,869
809,18	29,198
809,36	29,157
809,53	29,023
809,71	29,102
809,89	28,923
810,06	28,922
810,24	28,785
810,42	28,689
810,59	28,666
810,77	28,933
810,95	28,837
811,12	28,722
811,30	28,579
811,47	28,724
811,65	28,586
811,83	28,619
812,00	28,683
812,18	28,676
812,35	28,613
812,53	28,477
812,71	28,262
812,88	28,162
813,06	27,978
813,24	28,072
813,41	28,089
813,59	28,000
813,76	27,954
813,94	27,899
814,11	27,764
814,29	27,726
814,47	27,770
814,64	27,710
814,82	27,785
814,99	27,833
815,17	27,667
815,35	27,537
815,52	27,702
815,70	27,662
815,87	27,632
816,05	27,844
816,22	27,872
816,40	27,891
816,58	27,813
816,75	27,691
816,93	27,569
817,10	27,661
817,28	27,739
817,45	27,573
817,63	27,779
817,81	27,789
817,98	27,474
818,16	27,675
818,33	27,641
818,51	27,648
818,68	27,701
818,86	27,829
819,03	27,856
819,21	27,837
819,38	27,841
819,56	27,890
819,74	27,852
819,91	28,088
820,09	27,975
820,26	28,092
820,44	28,059
820,61	28,055
820,79	28,031
820,96	28,033
821,14	28,102
821,31	28,225
821,49	27,994
821,66	27,963
821,84	27,938
822,01	27,866
822,19	27,725
822,36	27,733
822,54	27,796
822,71	27,886
822,89	27,721
823,06	27,736
823,24	27,725
823,41	27,653
823,59	27,817
823,76	27,762
823,94	27,806
824,11	27,885
824,29	27,983
824,46	27,932
824,64	27,767
824,81	28,008
824,99	27,899
825,16	27,854
825,34	27,939
825,51	28,038
825,69	27,985
825,86	28,043
826,04	28,118
826,21	28,082
826,39	28,248
826,56	28,276
826,74	28,247
826,91	28,269
827,09	28,305
827,26	28,480
827,43	28,239
827,61	28,466
827,78	28,277
827,96	28,144
828,13	28,191
828,31	28,043
828,48	28,206
828,66	28,191
828,83	28,126
829,01	28,148
829,18	28,091
829,35	28,143
829,53	28,089
829,70	28,338
829,88	28,552
830,05	28,710
830,23	28,690
830,40	28,436
830,57	28,359
830,75	28,563
830,92	28,634
831,10	28,456
831,27	28,391
831,45	28,335
831,62	28,490
831,79	28,412
831,97	28,214
832,14	28,385
832,32	28,497
832,49	28,578
832,66	28,544
832,84	28,404
833,01	28,546
833,19	28,530
833,36	28,651
833,53	28,242
833,71	28,165
833,88	28,080
834,06	27,815
834,23	27,648
834,40	27,569
834,58	27,524
834,75	27,546
834,93	27,556
835,10	27,762
835,27	27,629
835,45	27,745
835,62	27,684
835,79	27,859
835,97	28,137
836,14	28,367
836,32	28,460
836,49	28,401
836,66	28,389
836,84	28,375
837,01	28,215
837,18	28,287
837,36	28,246
837,53	28,371
837,71	28,543
837,88	28,462
838,05	28,274
838,23	28,280
838,40	28,318
838,57	28,311
838,75	28,530
838,92	28,543
839,09	28,360
839,27	28,526
839,44	28,351
839,61	28,054
839,79	28,113
839,96	28,277
840,13	28,346
840,31	28,305
840,48	28,292
840,65	28,095
840,83	28,019
841,00	27,999
841,17	27,895
841,35	28,061
841,52	28,327
841,69	28,439
841,86	28,615
842,04	28,621
842,21	28,600
842,38	28,726
842,56	28,821
842,73	28,747
842,90	28,862
843,08	28,833
843,25	28,697
843,42	28,403
843,60	28,199
843,77	28,055
843,94	27,819
844,11	27,907
844,29	27,821
844,46	27,615
844,63	27,884
844,81	27,826
844,98	27,855
845,15	27,815
845,32	27,719
845,50	27,499
845,67	27,520
845,84	27,818
846,01	27,814
846,19	27,823
846,36	28,115
846,53	28,175
846,71	28,096
846,88	27,877
847,05	27,952
847,22	28,185
847,40	28,665
847,57	28,543
847,74	28,398
847,91	28,181
848,09	28,174
848,26	27,950
848,43	27,679
848,60	27,814
848,78	28,767
848,95	28,614
849,12	28,556
849,29	28,249
849,46	28,455
849,64	28,524
849,81	28,852
849,98	29,004
850,15	28,989
850,33	29,255
850,50	29,269
850,67	28,677
850,84	28,903
851,02	28,914
851,19	29,040
851,36	28,481
851,53	28,312
851,70	28,296
851,88	28,221
852,05	28,241
852,22	28,056
852,39	28,010
852,56	27,893
852,74	27,807
852,91	28,021
853,08	27,925
853,25	28,371
853,42	28,235
853,60	28,096
853,77	27,926
853,94	28,107
854,11	28,271
854,28	28,367
854,45	28,264
854,63	28,498
854,80	28,320
854,97	28,283
855,14	28,433
855,31	28,507
855,49	28,438
855,66	28,462
855,83	28,332
856,00	28,283
856,17	28,224
856,34	28,321
856,52	28,259
856,69	28,185
856,86	28,164
857,03	27,894
857,20	27,915
857,37	27,871
857,54	27,836
857,72	27,799
857,89	27,853
858,06	27,726
858,23	27,856
858,40	27,830
858,57	27,717
858,74	27,643
858,92	27,637
859,09	27,948
859,26	28,170
859,43	28,230
859,60	28,559
859,77	28,231
859,94	28,116
860,11	27,791
860,29	27,999
860,46	27,980
860,63	27,902
860,80	28,151
860,97	28,145
861,14	28,098
861,31	28,121
861,48	28,045
861,65	28,136
861,83	28,247
862,00	28,492
862,17	28,100
862,34	28,239
862,51	28,465
862,68	28,222
862,85	28,012
863,02	27,778
863,19	27,996
863,36	27,699
863,54	27,860
863,71	27,847
863,88	27,927
864,05	27,970
864,22	28,048
864,39	28,025
864,56	28,046
864,73	27,287
864,90	27,478
865,07	27,137
865,24	27,375
865,41	27,291
865,58	27,521
865,75	27,540
865,93	27,563
866,10	27,601
866,27	27,609
866,44	27,737
866,61	28,412
866,78	28,467
866,95	28,624
867,12	28,507
867,29	28,403
867,46	27,987
867,63	27,810
867,80	27,717
867,97	27,521
868,14	27,694
868,31	27,531
868,48	27,411
868,65	27,355
868,82	27,395
868,99	26,977
869,16	27,063
869,33	27,259
869,50	27,237
869,67	27,484
869,84	27,587
870,01	27,416
870,18	27,699
870,35	27,939
870,52	27,767
870,69	27,558
870,86	27,566
871,03	27,635
871,20	27,762
871,37	27,693
871,54	27,353
871,71	27,157
871,88	27,306
872,05	26,976
872,22	26,893
872,39	26,897
872,56	26,977
872,73	27,148
872,90	27,327
873,07	26,909
873,24	27,049
873,41	27,343
873,58	27,339
873,75	27,141
873,92	27,179
874,09	27,190
874,26	27,254
874,43	27,535
874,60	27,401
874,77	27,227
874,94	27,520
875,11	27,578
875,28	27,448
875,45	27,584
875,62	27,803
875,79	28,016
875,96	28,189
876,13	28,239
876,30	27,936
876,47	28,242
876,64	28,293
876,81	28,416
876,97	28,489
877,14	28,287
877,31	28,167
877,48	27,735
877,65	27,650
877,82	27,499
877,99	27,442
878,16	27,388
878,33	27,001
878,50	27,027
878,67	27,127
878,84	26,735
879,01	26,934
879,18	27,336
879,34	27,516
879,51	27,533
879,68	27,468
879,85	27,538
880,02	27,717
880,19	27,921
880,36	27,860
880,53	27,829
880,70	27,910
880,87	28,146
881,03	27,910
881,20	28,022
881,37	27,910
881,54	27,896
881,71	27,929
881,88	27,911
882,05	27,845
882,22	27,630
882,39	27,455
882,55	27,819
882,72	27,677
882,89	27,386
883,06	27,411
883,23	27,487
883,40	27,453
883,57	27,358
883,74	27,242
883,90	27,370
884,07	27,210
884,24	27,381
884,41	27,319
884,58	27,041
884,75	27,217
884,92	27,043
885,08	27,284
885,25	27,195
885,42	27,189
885,59	27,130
885,76	27,059
885,93	27,370
886,10	27,231
886,26	27,087
886,43	27,452
886,60	27,413
886,77	27,339
886,94	26,817
887,11	26,905
887,27	27,109
887,44	27,188
887,61	27,304
887,78	27,372
887,95	27,266
888,11	27,290
888,28	27,157
888,45	26,981
888,62	27,095
888,79	27,179
888,96	27,153
889,12	26,918
889,29	26,702
889,46	26,702
889,63	26,435
889,80	26,298
889,96	26,145
890,13	26,148
890,30	26,969
890,47	26,889
890,64	26,951
890,80	26,911
890,97	26,909
891,14	27,049
891,31	26,929
891,47	26,435
891,64	26,435
891,81	26,435
891,98	26,435
892,15	26,435
>>>>>End Processed Spectral Data<<<<<
