SpectraSuite Data File
++++++++++++++++++++++++++++++++++++
Date: Mon Jul 30 14:36:30 ART 2018
User: Diogo
Dark Spectrum Present: Yes
Reference Spectrum Present: Yes
Number of Sampled Component Spectra: 1
Spectrometers: USB4J00421
Integration Time (usec): 1091828 (USB4J00421)
Spectra Averaged: 5 (USB4J00421)
Boxcar Smoothing: 5 (USB4J00421)
Correct for Electrical Dark: No (USB4J00421)
Strobe/Lamp Enabled: No (USB4J00421)
Correct for Detector Non-linearity: No (USB4J00421)
Correct for Stray Light: No (USB4J00421)
Number of Pixels in Processed Spectrum: 3648
>>>>>Begin Processed Spectral Data<<<<<
177,28	0,000
177,50	0,000
177,72	0,000
177,94	-99,174
178,16	62,302
178,37	-43,689
178,59	-47,932
178,81	-47,069
179,03	-40,222
179,25	-36,538
179,47	-56,515
179,69	-57,872
179,90	-73,784
180,12	-69,823
180,34	-47,214
180,56	-12,372
180,78	0,623
181,00	0,820
181,22	13,423
181,43	10,625
181,65	17,647
181,87	21,170
182,09	16,993
182,31	8,842
182,53	3,948
182,74	-9,316
182,96	-19,721
183,18	-25,892
183,40	-13,463
183,62	-23,412
183,84	-9,367
184,05	-3,802
184,27	-9,504
184,49	-1,910
184,71	0,446
184,93	9,367
185,15	8,844
185,36	8,326
185,58	7,958
185,80	1,706
186,02	1,485
186,24	-14,334
186,45	-28,571
186,67	-34,664
186,89	-29,001
187,11	-15,991
187,33	-11,797
187,55	-6,617
187,76	8,183
187,98	16,746
188,20	13,388
188,42	18,928
188,64	27,002
188,85	19,589
189,07	23,146
189,29	21,555
189,51	22,985
189,73	20,388
189,94	19,518
190,16	11,478
190,38	1,560
190,60	4,790
190,82	-2,686
191,03	-18,541
191,25	-6,582
191,47	-11,488
191,69	-13,819
191,91	-18,105
192,12	-23,906
192,34	-32,877
192,56	-44,150
192,78	-33,315
193,00	-36,136
193,21	-47,666
193,43	-39,675
193,65	-32,931
193,87	-28,855
194,09	-21,720
194,30	-18,162
194,52	-18,571
194,74	-12,808
194,96	-3,663
195,17	-26,949
195,39	-22,458
195,61	-7,802
195,83	-6,658
196,05	-5,979
196,26	-4,087
196,48	-3,686
196,70	-3,315
196,92	7,002
197,13	10,951
197,35	6,989
197,57	20,391
197,79	16,302
198,01	4,404
198,22	-1,309
198,44	4,357
198,66	5,175
198,88	-6,979
199,09	-7,721
199,31	-8,927
199,53	-8,996
199,75	-10,383
199,96	-11,320
200,18	-13,219
200,40	-6,297
200,62	-69,870
200,83	-89,620
201,05	-83,178
201,27	-77,702
201,49	-86,778
201,70	-83,994
201,92	-109,869
202,14	-86,798
202,36	-118,661
202,57	-98,980
202,79	-107,538
203,01	-13,377
203,23	-9,043
203,44	-2,930
203,66	10,729
203,88	16,667
204,10	12,716
204,31	23,832
204,53	31,485
204,75	30,891
204,97	22,997
205,18	34,781
205,40	27,775
205,62	31,392
205,84	23,060
206,05	12,710
206,27	20,068
206,49	23,629
206,71	17,762
206,92	21,821
207,14	29,200
207,36	32,573
207,57	23,499
207,79	32,901
208,01	30,208
208,23	30,685
208,44	34,816
208,66	24,156
208,88	16,626
209,10	21,373
209,31	4,721
209,53	9,909
209,75	6,914
209,96	12,638
210,18	17,733
210,40	5,266
210,62	13,495
210,83	11,047
211,05	11,090
211,27	5,911
211,48	5,628
211,70	4,098
211,92	-0,733
212,14	-3,413
212,35	-10,512
212,57	-13,059
212,79	-6,813
213,00	-10,129
213,22	-7,437
213,44	0,529
213,65	1,401
213,87	7,343
214,09	14,504
214,31	14,492
214,52	13,272
214,74	22,338
214,96	11,978
215,17	9,917
215,39	1,850
215,61	2,237
215,82	-6,281
216,04	-1,818
216,26	-14,163
216,47	-7,339
216,69	-8,479
216,91	-4,604
217,13	-8,744
217,34	-1,942
217,56	-0,142
217,78	-0,104
217,99	-5,508
218,21	3,277
218,43	-1,733
218,64	4,575
218,86	1,352
219,08	3,924
219,29	11,006
219,51	16,675
219,73	22,877
219,94	29,378
220,16	41,255
220,38	44,831
220,59	45,252
220,81	43,764
221,03	44,839
221,24	42,041
221,46	43,912
221,68	43,368
221,89	48,181
222,11	44,382
222,33	33,850
222,54	21,560
222,76	14,766
222,98	11,050
223,19	8,063
223,41	22,979
223,63	16,962
223,84	9,673
224,06	1,258
224,28	-20,765
224,49	-19,012
224,71	-0,096
224,93	8,309
225,14	16,907
225,36	16,436
225,57	29,012
225,79	8,988
226,01	10,512
226,22	16,861
226,44	13,173
226,66	26,558
226,87	24,268
227,09	13,897
227,31	5,727
227,52	5,699
227,74	8,972
227,96	11,657
228,17	8,403
228,39	13,524
228,60	6,749
228,82	8,977
229,04	5,956
229,25	0,972
229,47	0,489
229,69	2,061
229,90	-7,973
230,12	-8,599
230,33	-18,676
230,55	-12,643
230,77	-10,488
230,98	-0,847
231,20	6,030
231,42	9,017
231,63	9,169
231,85	11,210
232,06	20,174
232,28	31,476
232,50	27,385
232,71	32,916
232,93	34,375
233,15	32,780
233,36	22,425
233,58	25,890
233,79	18,342
234,01	22,097
234,23	23,576
234,44	20,245
234,66	14,531
234,87	18,330
235,09	16,467
235,31	8,290
235,52	7,871
235,74	11,040
235,95	6,568
236,17	3,584
236,39	-3,402
236,60	-6,901
236,82	-11,809
237,03	-16,106
237,25	-25,415
237,47	-20,854
237,68	-23,535
237,90	-19,427
238,11	-9,030
238,33	-8,915
238,55	-7,746
238,76	-37,823
238,98	-35,939
239,19	-31,243
239,41	-18,659
239,62	-14,295
239,84	-20,403
240,06	-0,931
240,27	-12,431
240,49	-22,544
240,70	-16,976
240,92	-10,998
241,13	16,815
241,35	22,911
241,57	27,511
241,78	18,758
242,00	18,887
242,21	16,858
242,43	10,303
242,64	8,638
242,86	15,901
243,08	6,910
243,29	10,475
243,51	5,158
243,72	8,669
243,94	12,613
244,15	19,503
244,37	11,988
244,59	9,736
244,80	5,553
245,02	9,302
245,23	17,323
245,45	18,655
245,66	21,792
245,88	22,060
246,09	21,057
246,31	15,041
246,53	17,794
246,74	18,204
246,96	19,845
247,17	18,237
247,39	20,556
247,60	10,802
247,82	12,305
248,03	5,957
248,25	8,860
248,46	-4,874
248,68	-9,205
248,90	-17,245
249,11	-9,136
249,33	-12,355
249,54	-12,429
249,76	-7,638
249,97	-8,002
250,19	-5,808
250,40	-10,581
250,62	-10,557
250,83	-10,073
251,05	-7,401
251,26	-11,080
251,48	-13,414
251,69	-8,461
251,91	-0,000
252,13	-1,506
252,34	6,569
252,56	14,265
252,77	17,181
252,99	17,752
253,20	24,059
253,42	25,045
253,63	27,654
253,85	23,725
254,06	28,017
254,28	26,523
254,49	22,871
254,71	6,265
254,92	-3,571
255,14	-8,684
255,35	7,635
255,57	8,164
255,78	0,923
256,00	0,306
256,21	3,548
256,43	6,647
256,64	7,138
256,86	5,226
257,07	9,410
257,29	14,700
257,50	20,981
257,72	8,913
257,93	11,708
258,15	9,454
258,36	19,239
258,58	18,544
258,79	17,747
259,01	14,597
259,22	14,794
259,44	-0,904
259,65	-7,872
259,87	-11,265
260,08	-11,714
260,30	-2,306
260,51	2,804
260,73	-10,568
260,94	-17,155
261,16	-13,486
261,37	-14,837
261,59	-10,482
261,80	8,070
262,02	14,358
262,23	11,589
262,45	11,168
262,66	0,422
262,87	0,923
263,09	1,830
263,30	10,611
263,52	13,192
263,73	18,854
263,95	16,907
264,16	24,989
264,38	25,542
264,59	31,137
264,81	28,738
265,02	23,509
265,24	24,674
265,45	33,135
265,67	37,441
265,88	28,384
266,09	28,850
266,31	24,087
266,52	18,926
266,74	14,692
266,95	12,842
267,17	14,540
267,38	13,832
267,60	14,872
267,81	1,888
268,03	-8,414
268,24	2,505
268,45	8,430
268,67	13,744
268,88	14,510
269,10	16,216
269,31	10,731
269,53	13,204
269,74	14,369
269,96	20,773
270,17	26,720
270,38	29,556
270,60	24,955
270,81	22,067
271,03	20,865
271,24	24,519
271,46	20,219
271,67	23,249
271,88	23,839
272,10	35,054
272,31	27,735
272,53	26,926
272,74	19,624
272,96	25,734
273,17	18,078
273,38	12,870
273,60	6,104
273,81	4,783
274,03	14,234
274,24	15,249
274,46	0,562
274,67	5,937
274,88	-2,753
275,10	10,703
275,31	8,659
275,53	20,204
275,74	24,210
275,95	31,639
276,17	35,355
276,38	28,175
276,60	30,718
276,81	32,505
277,02	29,453
277,24	37,094
277,45	31,747
277,67	30,431
277,88	21,305
278,09	18,520
278,31	16,260
278,52	14,893
278,74	10,387
278,95	11,214
279,16	10,709
279,38	15,061
279,59	13,227
279,81	16,125
280,02	11,804
280,23	15,423
280,45	16,924
280,66	14,920
280,88	11,379
281,09	15,791
281,30	14,460
281,52	15,629
281,73	13,020
281,94	17,183
282,16	16,025
282,37	22,164
282,59	18,445
282,80	18,402
283,01	18,756
283,23	18,761
283,44	21,892
283,65	17,037
283,87	13,000
284,08	14,210
284,30	10,201
284,51	12,112
284,72	-4,711
284,94	-7,031
285,15	-6,156
285,36	-4,774
285,58	-5,303
285,79	-5,593
286,01	-2,840
286,22	-8,681
286,43	-1,483
286,65	2,899
286,86	-3,027
287,07	7,666
287,29	13,845
287,50	14,483
287,71	11,310
287,93	28,295
288,14	29,134
288,35	34,482
288,57	40,581
288,78	38,023
288,99	31,252
289,21	40,319
289,42	37,842
289,63	41,967
289,85	36,022
290,06	38,512
290,28	32,243
290,49	23,200
290,70	11,826
290,92	14,159
291,13	12,198
291,34	17,945
291,56	16,112
291,77	21,039
291,98	11,750
292,20	21,067
292,41	19,347
292,62	14,242
292,84	23,266
293,05	29,752
293,26	29,602
293,47	27,809
293,69	29,343
293,90	26,307
294,11	18,769
294,33	20,974
294,54	19,445
294,75	18,216
294,97	21,229
295,18	20,259
295,39	13,510
295,61	11,871
295,82	11,397
296,03	2,629
296,25	3,427
296,46	7,003
296,67	5,216
296,89	6,550
297,10	13,181
297,31	10,549
297,52	7,139
297,74	8,362
297,95	3,045
298,16	2,494
298,38	9,957
298,59	11,929
298,80	10,310
299,02	12,519
299,23	11,337
299,44	11,722
299,65	13,432
299,87	16,233
300,08	19,503
300,29	32,422
300,51	34,250
300,72	34,778
300,93	35,485
301,14	35,924
301,36	32,976
301,57	33,095
301,78	31,878
302,00	28,979
302,21	28,174
302,42	25,825
302,63	22,737
302,85	25,294
303,06	24,049
303,27	21,537
303,49	22,152
303,70	22,887
303,91	22,356
304,12	20,131
304,34	22,834
304,55	23,276
304,76	24,249
304,97	23,972
305,19	23,634
305,40	24,121
305,61	23,967
305,82	23,811
306,04	24,646
306,25	25,223
306,46	25,523
306,68	22,916
306,89	21,817
307,10	21,830
307,31	20,332
307,53	19,898
307,74	18,805
307,95	19,628
308,16	19,286
308,38	19,078
308,59	19,268
308,80	18,630
309,01	19,658
309,23	19,535
309,44	18,738
309,65	18,429
309,86	18,910
310,07	19,686
310,29	18,940
310,50	19,306
310,71	17,865
310,92	17,555
311,14	17,782
311,35	18,150
311,56	18,837
311,77	19,334
311,99	21,351
312,20	20,842
312,41	20,180
312,62	20,316
312,84	20,612
313,05	21,893
313,26	21,318
313,47	22,151
313,68	21,942
313,90	22,106
314,11	22,093
314,32	21,425
314,53	21,828
314,75	21,958
314,96	22,636
315,17	21,248
315,38	21,078
315,59	22,065
315,81	21,289
316,02	21,373
316,23	20,934
316,44	21,033
316,65	19,133
316,87	18,446
317,08	18,825
317,29	18,634
317,50	19,852
317,71	20,279
317,93	19,982
318,14	20,145
318,35	20,287
318,56	20,727
318,77	21,115
318,99	22,566
319,20	22,766
319,41	22,914
319,62	22,950
319,83	22,953
320,05	22,764
320,26	22,817
320,47	22,957
320,68	23,132
320,89	22,924
321,11	23,046
321,32	23,608
321,53	23,674
321,74	23,803
321,95	23,887
322,16	24,099
322,38	24,530
322,59	24,605
322,80	24,615
323,01	24,549
323,22	24,724
323,43	24,459
323,65	24,175
323,86	24,515
324,07	24,244
324,28	24,558
324,49	24,638
324,70	24,499
324,92	24,863
325,13	24,828
325,34	25,089
325,55	25,167
325,76	25,432
325,97	25,411
326,19	25,485
326,40	25,823
326,61	25,948
326,82	26,068
327,03	26,339
327,24	26,281
327,46	26,647
327,67	26,759
327,88	26,866
328,09	26,921
328,30	27,397
328,51	27,462
328,72	27,385
328,94	27,274
329,15	27,193
329,36	27,108
329,57	27,160
329,78	27,171
329,99	27,283
330,20	27,279
330,42	27,620
330,63	27,421
330,84	27,512
331,05	27,743
331,26	27,733
331,47	27,813
331,68	27,947
331,89	27,958
332,11	27,941
332,32	27,942
332,53	28,107
332,74	27,815
332,95	27,716
333,16	27,867
333,37	27,819
333,58	27,934
333,80	28,026
334,01	27,979
334,22	28,176
334,43	28,311
334,64	28,603
334,85	28,570
335,06	28,897
335,27	29,073
335,48	29,079
335,70	29,031
335,91	28,859
336,12	28,889
336,33	29,204
336,54	29,315
336,75	29,303
336,96	29,024
337,17	28,973
337,38	28,785
337,59	28,877
337,81	28,994
338,02	29,079
338,23	29,372
338,44	29,417
338,65	29,436
338,86	29,302
339,07	29,309
339,28	29,479
339,49	29,849
339,70	29,987
339,91	30,080
340,13	30,003
340,34	30,175
340,55	30,126
340,76	30,195
340,97	30,171
341,18	30,364
341,39	30,465
341,60	30,337
341,81	30,115
342,02	30,106
342,23	30,168
342,44	30,122
342,65	30,272
342,87	30,411
343,08	30,478
343,29	30,550
343,50	30,340
343,71	30,223
343,92	30,182
344,13	30,313
344,34	30,314
344,55	30,350
344,76	30,372
344,97	30,308
345,18	30,411
345,39	30,421
345,60	30,332
345,81	30,542
346,02	30,613
346,23	30,782
346,45	30,690
346,66	30,748
346,87	30,583
347,08	30,558
347,29	30,453
347,50	30,481
347,71	30,389
347,92	30,244
348,13	30,185
348,34	30,170
348,55	30,009
348,76	30,209
348,97	29,987
349,18	30,025
349,39	30,244
349,60	30,109
349,81	30,018
350,02	29,919
350,23	29,996
350,44	30,087
350,65	30,037
350,86	29,991
351,07	29,883
351,28	30,039
351,49	29,893
351,70	29,705
351,91	29,865
352,12	29,832
352,33	30,096
352,55	30,066
352,76	29,876
352,97	30,106
353,18	30,154
353,39	30,176
353,60	30,166
353,81	30,354
354,02	29,968
354,23	29,964
354,44	29,946
354,65	29,695
354,86	29,825
355,07	29,871
355,28	29,837
355,49	29,771
355,70	29,688
355,91	29,812
356,12	29,715
356,33	30,309
356,54	30,294
356,75	30,271
356,96	30,331
357,17	30,457
357,38	30,511
357,59	30,337
357,80	30,385
358,01	30,482
358,22	30,295
358,43	30,509
358,64	30,377
358,85	30,234
359,05	30,216
359,26	30,281
359,47	30,093
359,68	30,071
359,89	30,002
360,10	29,739
360,31	29,673
360,52	29,601
360,73	29,359
360,94	29,300
361,15	29,291
361,36	29,352
361,57	29,483
361,78	29,456
361,99	29,391
362,20	29,173
362,41	29,453
362,62	29,362
362,83	29,345
363,04	29,305
363,25	29,340
363,46	29,322
363,67	29,277
363,88	29,059
364,09	28,949
364,30	28,975
364,51	29,196
364,72	29,237
364,93	29,160
365,13	29,097
365,34	29,118
365,55	29,022
365,76	29,046
365,97	28,925
366,18	28,980
366,39	28,919
366,60	28,935
366,81	28,920
367,02	28,726
367,23	28,813
367,44	28,859
367,65	28,853
367,86	28,616
368,07	28,544
368,28	28,562
368,49	28,543
368,69	28,771
368,90	28,644
369,11	28,727
369,32	28,843
369,53	28,818
369,74	28,896
369,95	29,009
370,16	29,294
370,37	29,492
370,58	29,712
370,79	29,805
371,00	29,661
371,21	29,875
371,41	29,800
371,62	29,872
371,83	29,965
372,04	30,109
372,25	29,949
372,46	30,111
372,67	30,053
372,88	30,075
373,09	30,145
373,30	30,341
373,51	30,346
373,71	30,541
373,92	30,779
374,13	30,893
374,34	30,852
374,55	31,081
374,76	31,204
374,97	31,238
375,18	31,301
375,39	31,301
375,59	31,413
375,80	31,481
376,01	31,513
376,22	31,402
376,43	31,535
376,64	31,635
376,85	31,812
377,06	31,850
377,27	32,009
377,47	32,161
377,68	32,330
377,89	32,514
378,10	32,638
378,31	32,779
378,52	33,101
378,73	33,300
378,94	33,379
379,14	33,478
379,35	33,620
379,56	33,649
379,77	33,755
379,98	33,948
380,19	33,680
380,40	33,899
380,61	34,271
380,81	34,281
381,02	34,314
381,23	34,526
381,44	34,765
381,65	34,891
381,86	35,172
382,07	35,163
382,27	35,263
382,48	35,861
382,69	35,857
382,90	35,876
383,11	36,192
383,32	36,290
383,52	36,643
383,73	36,869
383,94	37,001
384,15	37,570
384,36	37,735
384,57	38,093
384,78	38,097
384,98	38,223
385,19	38,413
385,40	38,328
385,61	38,662
385,82	38,757
386,03	38,827
386,23	39,073
386,44	38,973
386,65	39,220
386,86	39,292
387,07	40,010
387,28	40,271
387,48	40,412
387,69	40,716
387,90	40,828
388,11	40,926
388,32	40,982
388,52	41,226
388,73	41,373
388,94	41,659
389,15	41,710
389,36	41,373
389,57	41,566
389,77	41,747
389,98	41,889
390,19	42,003
390,40	42,198
390,61	42,583
390,81	42,645
391,02	42,859
391,23	42,914
391,44	43,108
391,65	43,421
391,85	43,639
392,06	43,774
392,27	44,009
392,48	44,223
392,69	44,385
392,89	44,482
393,10	44,749
393,31	44,899
393,52	45,310
393,73	45,478
393,93	45,570
394,14	45,728
394,35	45,781
394,56	45,944
394,76	46,073
394,97	46,233
395,18	46,191
395,39	46,087
395,60	46,095
395,80	46,005
396,01	45,937
396,22	46,111
396,43	46,268
396,63	46,454
396,84	46,430
397,05	46,659
397,26	46,812
397,47	47,137
397,67	47,572
397,88	47,801
398,09	48,000
398,30	48,266
398,50	48,422
398,71	48,413
398,92	48,603
399,13	48,771
399,33	48,889
399,54	48,944
399,75	49,014
399,96	49,052
400,16	49,074
400,37	49,216
400,58	49,386
400,79	49,584
400,99	49,757
401,20	49,811
401,41	49,967
401,62	50,004
401,82	50,155
402,03	50,290
402,24	50,481
402,45	50,726
402,65	50,682
402,86	50,771
403,07	50,833
403,28	50,900
403,48	50,918
403,69	50,944
403,90	51,049
404,10	51,152
404,31	51,378
404,52	51,424
404,73	51,598
404,93	51,748
405,14	51,714
405,35	51,813
405,56	51,988
405,76	52,265
405,97	52,392
406,18	52,566
406,38	52,754
406,59	52,595
406,80	52,742
407,01	52,651
407,21	52,684
407,42	52,799
407,63	52,833
407,83	52,898
408,04	52,957
408,25	53,056
408,46	53,180
408,66	53,288
408,87	53,417
409,08	53,469
409,28	53,645
409,49	53,894
409,70	54,077
409,90	54,189
410,11	54,140
410,32	54,167
410,52	54,382
410,73	54,445
410,94	54,404
411,15	54,539
411,35	54,726
411,56	54,789
411,77	54,892
411,97	54,960
412,18	55,113
412,39	55,319
412,59	55,506
412,80	55,631
413,01	55,694
413,21	55,857
413,42	55,905
413,63	55,891
413,83	55,917
414,04	55,957
414,25	56,119
414,45	56,142
414,66	56,314
414,87	56,213
415,07	56,195
415,28	56,225
415,49	56,257
415,69	56,433
415,90	56,506
416,11	56,598
416,31	56,606
416,52	56,488
416,73	56,499
416,93	56,504
417,14	56,642
417,35	56,731
417,55	56,835
417,76	56,932
417,97	56,926
418,17	56,906
418,38	56,934
418,59	57,070
418,79	57,162
419,00	57,195
419,20	57,104
419,41	57,062
419,62	57,078
419,82	57,107
420,03	57,028
420,24	57,003
420,44	57,107
420,65	57,150
420,86	57,106
421,06	57,142
421,27	57,276
421,47	57,351
421,68	57,380
421,89	57,424
422,09	57,554
422,30	57,598
422,51	57,700
422,71	57,783
422,92	57,888
423,12	57,991
423,33	58,009
423,54	57,923
423,74	58,012
423,95	58,180
424,16	58,152
424,36	58,137
424,57	58,067
424,77	58,127
424,98	58,131
425,19	58,121
425,39	58,069
425,60	58,155
425,80	58,170
426,01	58,185
426,22	58,110
426,42	58,101
426,63	58,065
426,83	58,169
427,04	58,129
427,25	58,077
427,45	57,901
427,66	57,949
427,86	57,942
428,07	57,893
428,27	58,026
428,48	58,016
428,69	58,076
428,89	58,014
429,10	58,174
429,30	58,252
429,51	58,076
429,72	58,333
429,92	58,258
430,13	58,165
430,33	58,217
430,54	58,099
430,74	58,184
430,95	58,205
431,16	58,255
431,36	58,235
431,57	58,056
431,77	58,217
431,98	58,220
432,18	58,327
432,39	58,369
432,60	58,441
432,80	58,339
433,01	58,405
433,21	58,464
433,42	58,638
433,62	58,552
433,83	58,666
434,03	58,662
434,24	58,562
434,45	58,480
434,65	58,456
434,86	58,334
435,06	58,323
435,27	58,153
435,47	57,950
435,68	57,818
435,88	57,812
436,09	57,777
436,29	57,694
436,50	57,643
436,71	57,613
436,91	57,714
437,12	57,880
437,32	57,895
437,53	57,907
437,73	57,989
437,94	57,929
438,14	57,977
438,35	58,017
438,55	58,111
438,76	58,051
438,96	57,932
439,17	57,826
439,37	57,719
439,58	57,709
439,78	57,608
439,99	57,487
440,19	57,532
440,40	57,482
440,60	57,470
440,81	57,350
441,02	57,500
441,22	57,615
441,43	57,574
441,63	57,596
441,84	57,606
442,04	57,776
442,25	57,852
442,45	57,801
442,66	57,849
442,86	57,810
443,07	57,926
443,27	57,904
443,48	57,999
443,68	58,109
443,89	58,094
444,09	58,144
444,30	58,093
444,50	58,093
444,70	58,036
444,91	57,961
445,11	57,923
445,32	57,930
445,52	57,944
445,73	57,822
445,93	57,390
446,14	57,362
446,34	57,114
446,55	57,054
446,75	57,050
446,96	57,079
447,16	57,066
447,37	57,114
447,57	57,126
447,78	57,055
447,98	57,030
448,19	57,348
448,39	57,296
448,60	57,519
448,80	57,594
449,00	57,587
449,21	57,684
449,41	57,721
449,62	57,701
449,82	57,654
450,03	57,584
450,23	57,697
450,44	57,605
450,64	57,568
450,85	57,608
451,05	57,616
451,25	57,613
451,46	57,533
451,66	57,619
451,87	57,585
452,07	57,516
452,28	57,595
452,48	57,456
452,69	57,602
452,89	57,657
453,09	57,547
453,30	57,508
453,50	57,478
453,71	57,488
453,91	57,437
454,12	57,457
454,32	57,516
454,52	57,492
454,73	57,527
454,93	57,424
455,14	57,405
455,34	57,312
455,55	57,271
455,75	57,350
455,95	57,294
456,16	57,235
456,36	57,203
456,57	57,199
456,77	57,166
456,98	57,191
457,18	57,247
457,38	57,218
457,59	57,123
457,79	57,135
458,00	57,063
458,20	57,043
458,40	57,113
458,61	57,096
458,81	57,063
459,02	57,065
459,22	56,928
459,42	56,906
459,63	56,919
459,83	56,976
460,04	56,944
460,24	56,868
460,44	56,985
460,65	56,836
460,85	56,755
461,06	56,687
461,26	56,620
461,46	56,634
461,67	56,658
461,87	56,676
462,07	56,729
462,28	56,668
462,48	56,745
462,69	56,665
462,89	56,734
463,09	56,780
463,30	56,848
463,50	56,958
463,70	57,056
463,91	56,909
464,11	56,892
464,32	56,930
464,52	56,909
464,72	56,756
464,93	56,726
465,13	56,783
465,33	56,836
465,54	56,811
465,74	56,770
465,94	56,701
466,15	56,793
466,35	56,803
466,55	56,793
466,76	56,830
466,96	57,009
467,17	57,005
467,37	56,899
467,57	56,748
467,78	56,715
467,98	56,782
468,18	56,816
468,39	56,764
468,59	56,728
468,79	56,754
469,00	56,828
469,20	56,776
469,40	56,761
469,61	56,710
469,81	56,778
470,01	56,811
470,22	56,679
470,42	56,686
470,62	56,589
470,83	56,548
471,03	56,449
471,23	56,353
471,44	56,293
471,64	56,360
471,84	56,362
472,05	56,368
472,25	56,243
472,45	56,257
472,65	56,285
472,86	56,432
473,06	56,598
473,26	56,646
473,47	56,823
473,67	56,901
473,87	56,857
474,08	56,845
474,28	56,860
474,48	57,047
474,69	57,112
474,89	57,022
475,09	56,994
475,29	56,901
475,50	56,906
475,70	56,841
475,90	56,794
476,11	56,786
476,31	56,787
476,51	56,821
476,72	56,684
476,92	56,666
477,12	56,622
477,32	56,552
477,53	56,567
477,73	56,544
477,93	56,476
478,14	56,483
478,34	56,405
478,54	56,490
478,74	56,373
478,95	56,352
479,15	56,279
479,35	56,333
479,55	56,306
479,76	56,307
479,96	56,339
480,16	56,297
480,37	56,338
480,57	56,364
480,77	56,329
480,97	56,414
481,18	56,514
481,38	56,510
481,58	56,560
481,78	56,649
481,99	56,464
482,19	56,410
482,39	56,324
482,59	56,264
482,80	56,232
483,00	56,121
483,20	56,119
483,40	56,144
483,61	56,150
483,81	56,086
484,01	56,041
484,21	56,174
484,42	56,215
484,62	56,315
484,82	56,290
485,02	56,321
485,23	56,383
485,43	56,342
485,63	56,274
485,83	56,292
486,03	56,280
486,24	56,319
486,44	56,292
486,64	56,248
486,84	56,192
487,05	56,172
487,25	56,142
487,45	56,149
487,65	56,144
487,85	55,984
488,06	55,935
488,26	55,875
488,46	55,807
488,66	55,792
488,87	55,795
489,07	55,759
489,27	55,721
489,47	55,678
489,67	55,661
489,88	55,624
490,08	55,694
490,28	55,684
490,48	55,664
490,68	55,667
490,89	55,639
491,09	55,575
491,29	55,637
491,49	55,662
491,69	55,641
491,90	55,608
492,10	55,579
492,30	55,624
492,50	55,637
492,70	55,741
492,90	55,799
493,11	55,858
493,31	55,893
493,51	55,844
493,71	55,802
493,91	55,875
494,12	55,882
494,32	55,923
494,52	55,825
494,72	55,817
494,92	55,695
495,12	55,620
495,33	55,512
495,53	55,513
495,73	55,552
495,93	55,625
496,13	55,634
496,33	55,736
496,54	55,765
496,74	55,773
496,94	55,781
497,14	55,827
497,34	55,846
497,54	55,957
497,75	55,957
497,95	55,921
498,15	55,910
498,35	55,926
498,55	55,847
498,75	55,784
498,95	55,852
499,16	55,919
499,36	55,933
499,56	55,980
499,76	55,994
499,96	56,003
500,16	56,108
500,36	56,120
500,57	56,125
500,77	56,212
500,97	56,232
501,17	56,289
501,37	56,258
501,57	56,291
501,77	56,276
501,97	56,251
502,18	56,231
502,38	56,236
502,58	56,213
502,78	56,223
502,98	56,129
503,18	56,143
503,38	56,109
503,58	56,127
503,79	56,176
503,99	56,162
504,19	56,192
504,39	56,282
504,59	56,254
504,79	56,394
504,99	56,393
505,19	56,408
505,39	56,522
505,59	56,557
505,80	56,573
506,00	56,601
506,20	56,646
506,40	56,618
506,60	56,598
506,80	56,617
507,00	56,494
507,20	56,505
507,40	56,538
507,60	56,478
507,81	56,489
508,01	56,428
508,21	56,397
508,41	56,444
508,61	56,457
508,81	56,556
509,01	56,593
509,21	56,633
509,41	56,681
509,61	56,677
509,81	56,683
510,01	56,657
510,21	56,729
510,42	56,735
510,62	56,655
510,82	56,701
511,02	56,632
511,22	56,598
511,42	56,639
511,62	56,612
511,82	56,675
512,02	56,702
512,22	56,767
512,42	56,892
512,62	56,883
512,82	56,936
513,02	56,984
513,22	56,975
513,42	57,005
513,62	57,030
513,83	57,076
514,03	57,047
514,23	57,036
514,43	56,979
514,63	56,860
514,83	56,874
515,03	56,955
515,23	56,857
515,43	56,950
515,63	56,957
515,83	56,984
516,03	56,940
516,23	56,998
516,43	57,054
516,63	57,137
516,83	57,148
517,03	57,101
517,23	56,996
517,43	57,088
517,63	57,034
517,83	56,977
518,03	56,962
518,23	56,996
518,43	56,949
518,63	56,925
518,83	56,853
519,03	56,840
519,23	56,887
519,43	56,881
519,63	56,833
519,83	56,776
520,03	56,784
520,23	56,724
520,43	56,696
520,63	56,696
520,83	56,679
521,03	56,681
521,23	56,722
521,43	56,797
521,63	56,858
521,83	56,813
522,03	56,855
522,23	56,830
522,43	56,848
522,63	56,808
522,83	56,780
523,03	56,700
523,23	56,722
523,43	56,683
523,63	56,593
523,83	56,533
524,03	56,579
524,23	56,513
524,43	56,480
524,63	56,453
524,83	56,452
525,03	56,437
525,23	56,479
525,43	56,441
525,63	56,432
525,83	56,411
526,03	56,351
526,23	56,253
526,43	56,300
526,63	56,280
526,83	56,224
527,03	56,219
527,23	56,149
527,43	56,099
527,63	56,107
527,83	56,059
528,02	56,075
528,22	56,129
528,42	56,150
528,62	56,077
528,82	56,090
529,02	56,154
529,22	56,201
529,42	56,216
529,62	56,213
529,82	56,129
530,02	56,155
530,22	56,103
530,42	56,091
530,62	56,069
530,82	56,153
531,02	56,148
531,22	56,074
531,41	56,031
531,61	56,051
531,81	56,001
532,01	55,986
532,21	55,991
532,41	56,025
532,61	55,973
532,81	55,993
533,01	55,902
533,21	55,900
533,41	55,884
533,61	55,810
533,80	55,781
534,00	55,883
534,20	56,014
534,40	55,981
534,60	55,917
534,80	55,945
535,00	55,872
535,20	55,894
535,40	55,873
535,60	55,859
535,80	55,886
535,99	55,920
536,19	55,847
536,39	55,738
536,59	55,708
536,79	55,777
536,99	55,802
537,19	55,892
537,39	55,876
537,59	55,959
537,78	55,972
537,98	55,925
538,18	55,872
538,38	55,828
538,58	55,818
538,78	55,827
538,98	55,753
539,18	55,723
539,37	55,662
539,57	55,701
539,77	55,545
539,97	55,489
540,17	55,577
540,37	55,561
540,57	55,621
540,77	55,660
540,96	55,595
541,16	55,608
541,36	55,599
541,56	55,635
541,76	55,567
541,96	55,641
542,16	55,724
542,35	55,652
542,55	55,620
542,75	55,658
542,95	55,660
543,15	55,723
543,35	55,740
543,55	55,757
543,74	55,774
543,94	55,836
544,14	55,845
544,34	55,880
544,54	55,936
544,74	55,968
544,93	55,933
545,13	55,887
545,33	55,866
545,53	55,827
545,73	55,799
545,93	55,714
546,12	55,634
546,32	55,618
546,52	55,546
546,72	55,588
546,92	55,590
547,11	55,572
547,31	55,624
547,51	55,623
547,71	55,667
547,91	55,671
548,11	55,741
548,30	55,817
548,50	55,815
548,70	55,813
548,90	55,687
549,10	55,656
549,29	55,668
549,49	55,690
549,69	55,694
549,89	55,703
550,09	55,712
550,28	55,616
550,48	55,461
550,68	55,482
550,88	55,500
551,08	55,506
551,27	55,525
551,47	55,477
551,67	55,434
551,87	55,394
552,07	55,378
552,26	55,329
552,46	55,412
552,66	55,481
552,86	55,462
553,05	55,403
553,25	55,452
553,45	55,457
553,65	55,498
553,85	55,446
554,04	55,468
554,24	55,395
554,44	55,433
554,64	55,363
554,83	55,411
555,03	55,378
555,23	55,350
555,43	55,301
555,62	55,265
555,82	55,283
556,02	55,310
556,22	55,322
556,41	55,394
556,61	55,295
556,81	55,350
557,01	55,335
557,21	55,312
557,40	55,433
557,60	55,439
557,80	55,540
557,99	55,475
558,19	55,419
558,39	55,399
558,59	55,386
558,78	55,489
558,98	55,523
559,18	55,491
559,38	55,478
559,57	55,408
559,77	55,358
559,97	55,247
560,17	55,322
560,36	55,380
560,56	55,413
560,76	55,420
560,95	55,346
561,15	55,264
561,35	55,241
561,55	55,379
561,74	55,316
561,94	55,379
562,14	55,395
562,34	55,410
562,53	55,394
562,73	55,332
562,93	55,348
563,12	55,360
563,32	55,381
563,52	55,419
563,71	55,348
563,91	55,468
564,11	55,459
564,31	55,433
564,50	55,388
564,70	55,383
564,90	55,412
565,09	55,392
565,29	55,405
565,49	55,360
565,68	55,324
565,88	55,295
566,08	55,146
566,27	55,071
566,47	55,153
566,67	55,101
566,87	55,130
567,06	55,152
567,26	55,128
567,46	55,117
567,65	55,081
567,85	55,212
568,05	55,239
568,24	55,301
568,44	55,332
568,64	55,279
568,83	55,287
569,03	55,349
569,23	55,267
569,42	55,180
569,62	55,164
569,82	55,329
570,01	55,198
570,21	55,225
570,41	55,354
570,60	55,376
570,80	55,401
571,00	55,405
571,19	55,312
571,39	55,337
571,58	55,374
571,78	55,386
571,98	55,231
572,17	55,178
572,37	55,232
572,57	55,101
572,76	55,151
572,96	55,151
573,16	55,157
573,35	55,086
573,55	55,070
573,74	55,069
573,94	55,138
574,14	55,179
574,33	55,125
574,53	54,967
574,73	54,965
574,92	54,953
575,12	54,943
575,32	54,947
575,51	54,967
575,71	55,025
575,90	55,059
576,10	55,012
576,30	55,085
576,49	55,249
576,69	55,282
576,88	55,362
577,08	55,307
577,28	55,218
577,47	55,073
577,67	55,228
577,86	55,236
578,06	55,265
578,26	55,282
578,45	55,249
578,65	55,164
578,84	55,206
579,04	55,155
579,24	55,081
579,43	55,081
579,63	55,247
579,82	55,217
580,02	55,212
580,22	55,149
580,41	55,159
580,61	55,107
580,80	55,150
581,00	55,080
581,19	55,071
581,39	55,180
581,59	55,305
581,78	55,319
581,98	55,241
582,17	55,374
582,37	55,445
582,56	55,383
582,76	55,544
582,96	55,443
583,15	55,645
583,35	55,624
583,54	55,639
583,74	55,632
583,93	55,556
584,13	55,582
584,33	55,461
584,52	55,565
584,72	55,703
584,91	55,481
585,11	55,590
585,30	55,500
585,50	55,567
585,69	55,576
585,89	55,580
586,08	55,667
586,28	55,630
586,48	55,681
586,67	55,548
586,87	55,485
587,06	55,591
587,26	55,614
587,45	55,341
587,65	55,401
587,84	55,424
588,04	55,473
588,23	55,447
588,43	55,481
588,62	55,497
588,82	55,482
589,01	55,500
589,21	55,666
589,40	55,692
589,60	56,031
589,79	55,943
589,99	55,885
590,19	55,893
590,38	55,924
590,58	55,940
590,77	55,933
590,97	56,023
591,16	56,018
591,36	55,861
591,55	55,914
591,75	55,952
591,94	56,086
592,14	56,180
592,33	56,082
592,53	56,141
592,72	56,168
592,92	56,199
593,11	56,166
593,31	56,282
593,50	56,261
593,69	56,276
593,89	56,247
594,08	56,158
594,28	56,215
594,47	56,283
594,67	56,253
594,86	56,309
595,06	56,346
595,25	56,466
595,45	56,381
595,64	56,566
595,84	56,672
596,03	56,758
596,23	56,818
596,42	56,764
596,62	56,883
596,81	56,997
597,01	57,036
597,20	57,040
597,39	57,029
597,59	57,108
597,78	57,099
597,98	56,974
598,17	56,920
598,37	56,886
598,56	57,054
598,76	57,067
598,95	56,968
599,15	56,912
599,34	56,829
599,53	56,890
599,73	56,913
599,92	56,919
600,12	57,093
600,31	57,110
600,51	57,174
600,70	57,081
600,89	57,086
601,09	57,156
601,28	57,284
601,48	57,468
601,67	57,494
601,87	57,476
602,06	57,549
602,25	57,474
602,45	57,467
602,64	57,486
602,84	57,375
603,03	57,338
603,23	57,339
603,42	57,336
603,61	57,264
603,81	57,252
604,00	57,286
604,20	57,330
604,39	57,365
604,58	57,504
604,78	57,497
604,97	57,653
605,17	57,703
605,36	57,736
605,55	57,720
605,75	57,717
605,94	57,684
606,14	57,695
606,33	57,661
606,52	57,620
606,72	57,668
606,91	57,730
607,11	57,704
607,30	57,744
607,49	57,768
607,69	57,722
607,88	57,780
608,07	57,836
608,27	57,830
608,46	57,854
608,66	57,965
608,85	57,873
609,04	57,833
609,24	57,815
609,43	57,812
609,62	57,814
609,82	57,969
610,01	58,007
610,21	58,054
610,40	58,083
610,59	58,063
610,79	57,888
610,98	57,899
611,17	57,957
611,37	58,081
611,56	58,042
611,75	57,973
611,95	57,915
612,14	57,855
612,33	57,827
612,53	57,826
612,72	57,751
612,91	57,767
613,11	57,704
613,30	57,751
613,49	57,456
613,69	57,479
613,88	57,571
614,07	57,508
614,27	57,599
614,46	57,573
614,65	57,515
614,85	57,649
615,04	57,785
615,23	57,850
615,43	57,776
615,62	58,082
615,81	57,978
616,01	57,957
616,20	57,978
616,39	57,911
616,59	57,820
616,78	57,930
616,97	57,802
617,17	57,704
617,36	57,667
617,55	57,750
617,75	57,709
617,94	57,885
618,13	57,867
618,32	57,946
618,52	57,873
618,71	57,833
618,90	57,757
619,10	57,761
619,29	57,737
619,48	57,768
619,67	57,765
619,87	57,796
620,06	57,707
620,25	57,761
620,45	57,656
620,64	57,770
620,83	57,916
621,02	57,919
621,22	57,996
621,41	58,065
621,60	58,052
621,80	58,012
621,99	57,931
622,18	57,827
622,37	57,782
622,57	58,089
622,76	58,007
622,95	57,991
623,14	57,979
623,34	57,998
623,53	57,945
623,72	57,983
623,92	57,992
624,11	58,055
624,30	58,199
624,49	58,192
624,69	57,960
624,88	57,881
625,07	57,875
625,26	57,909
625,46	57,758
625,65	57,748
625,84	57,719
626,03	57,688
626,23	57,712
626,42	57,731
626,61	57,699
626,80	57,609
626,99	57,648
627,19	57,624
627,38	57,526
627,57	57,548
627,76	57,573
627,96	57,547
628,15	57,517
628,34	57,373
628,53	57,392
628,72	57,453
628,92	57,445
629,11	57,513
629,30	57,525
629,49	57,581
629,69	57,456
629,88	57,371
630,07	55,859
630,26	55,728
630,45	55,717
630,65	55,633
630,84	55,571
631,03	55,605
631,22	55,448
631,41	55,291
631,61	55,311
631,80	55,471
631,99	55,591
632,18	57,204
632,37	57,215
632,57	57,245
632,76	57,182
632,95	57,139
633,14	57,082
633,33	57,060
633,53	57,163
633,72	57,050
633,91	56,996
634,10	57,005
634,29	56,876
634,48	56,921
634,68	56,949
634,87	56,952
635,06	56,969
635,25	56,980
635,44	56,993
635,63	57,035
635,83	57,109
636,02	57,242
636,21	57,151
636,40	57,141
636,59	57,189
636,78	57,161
636,98	57,102
637,17	57,074
637,36	57,126
637,55	57,113
637,74	57,059
637,93	57,035
638,13	56,792
638,32	56,769
638,51	56,870
638,70	56,800
638,89	56,673
639,08	56,638
639,27	56,693
639,47	56,572
639,66	56,775
639,85	57,240
640,04	57,285
640,23	57,405
640,42	57,485
640,61	57,352
640,80	57,390
641,00	57,548
641,19	57,614
641,38	57,522
641,57	57,621
641,76	57,542
641,95	56,983
642,14	56,828
642,33	56,755
642,52	56,612
642,72	56,760
642,91	56,582
643,10	56,529
643,29	56,594
643,48	56,624
643,67	56,456
643,86	56,538
644,05	56,587
644,24	56,636
644,44	56,680
644,63	56,840
644,82	56,707
645,01	56,795
645,20	56,700
645,39	56,607
645,58	56,730
645,77	56,764
645,96	56,602
646,15	56,521
646,34	56,504
646,54	56,462
646,73	56,205
646,92	56,100
647,11	56,159
647,30	56,249
647,49	56,177
647,68	56,042
647,87	56,068
648,06	56,029
648,25	56,083
648,44	56,117
648,63	56,204
648,82	56,281
649,01	56,276
649,21	56,317
649,40	56,210
649,59	56,278
649,78	56,351
649,97	56,361
650,16	56,249
650,35	56,205
650,54	56,164
650,73	56,030
650,92	56,083
651,11	56,030
651,30	56,066
651,49	56,141
651,68	56,124
651,87	56,016
652,06	56,024
652,25	56,106
652,44	56,036
652,63	55,905
652,82	56,041
653,01	55,915
653,20	55,926
653,39	55,684
653,58	55,643
653,78	55,646
653,97	55,692
654,16	55,655
654,35	55,712
654,54	55,700
654,73	55,911
654,92	55,721
655,11	55,865
655,30	55,966
655,49	56,118
655,68	56,199
655,87	56,358
656,06	56,248
656,25	56,256
656,44	56,061
656,63	56,099
656,82	56,093
657,01	56,062
657,20	56,048
657,39	55,976
657,58	55,901
657,77	55,769
657,96	55,689
658,15	55,659
658,34	55,543
658,53	55,695
658,72	55,699
658,91	55,514
659,10	55,576
659,29	55,441
659,48	55,454
659,66	55,507
659,85	55,658
660,04	55,529
660,23	55,588
660,42	55,730
660,61	55,550
660,80	55,566
660,99	55,593
661,18	55,550
661,37	55,688
661,56	55,667
661,75	55,569
661,94	55,458
662,13	55,513
662,32	55,480
662,51	55,377
662,70	55,591
662,89	55,646
663,08	55,846
663,27	55,827
663,46	55,724
663,65	55,752
663,84	55,772
664,03	55,778
664,21	55,587
664,40	55,487
664,59	55,472
664,78	55,378
664,97	55,314
665,16	55,325
665,35	55,477
665,54	55,493
665,73	55,301
665,92	55,470
666,11	55,364
666,30	55,558
666,49	55,624
666,68	55,628
666,86	55,637
667,05	55,531
667,24	55,363
667,43	55,350
667,62	55,388
667,81	55,573
668,00	55,382
668,19	55,433
668,38	55,441
668,57	55,463
668,76	55,607
668,94	55,671
669,13	55,735
669,32	55,748
669,51	55,664
669,70	55,675
669,89	55,749
670,08	55,763
670,27	55,790
670,46	55,837
670,65	55,889
670,83	55,761
671,02	55,701
671,21	55,802
671,40	55,635
671,59	55,645
671,78	55,639
671,97	55,553
672,16	55,592
672,34	55,579
672,53	55,364
672,72	55,421
672,91	55,532
673,10	55,603
673,29	55,419
673,48	55,656
673,67	55,539
673,85	55,481
674,04	55,396
674,23	55,403
674,42	55,472
674,61	55,551
674,80	55,466
674,99	55,388
675,17	55,395
675,36	55,519
675,55	55,454
675,74	55,549
675,93	55,657
676,12	55,744
676,30	55,818
676,49	55,600
676,68	55,552
676,87	55,593
677,06	55,532
677,25	55,392
677,43	55,447
677,62	55,320
677,81	55,323
678,00	55,276
678,19	55,361
678,38	55,263
678,56	55,409
678,75	55,555
678,94	55,453
679,13	55,481
679,32	55,472
679,50	55,485
679,69	55,633
679,88	55,563
680,07	55,500
680,26	55,438
680,45	55,412
680,63	55,372
680,82	55,347
681,01	55,450
681,20	55,451
681,39	55,487
681,57	55,369
681,76	55,407
681,95	55,520
682,14	55,578
682,33	55,510
682,51	55,610
682,70	55,611
682,89	55,725
683,08	55,670
683,26	55,650
683,45	55,769
683,64	55,712
683,83	55,584
684,02	55,595
684,20	55,466
684,39	55,427
684,58	55,343
684,77	55,351
684,95	55,205
685,14	55,271
685,33	55,373
685,52	55,353
685,71	55,484
685,89	55,521
686,08	55,337
686,27	55,385
686,46	55,424
686,64	55,386
686,83	55,498
687,02	55,584
687,21	55,537
687,39	55,496
687,58	55,401
687,77	55,486
687,96	55,554
688,14	55,762
688,33	55,810
688,52	55,817
688,70	55,903
688,89	55,634
689,08	55,537
689,27	55,583
689,45	55,520
689,64	55,590
689,83	55,517
690,02	55,477
690,20	55,391
690,39	55,473
690,58	55,647
690,77	55,677
690,95	55,858
691,14	55,996
691,33	55,967
691,51	55,978
691,70	55,961
691,89	55,961
692,08	56,025
692,26	56,089
692,45	56,155
692,64	55,882
692,82	56,050
693,01	56,141
693,20	56,033
693,38	56,195
693,57	55,997
693,76	55,862
693,95	55,883
694,13	55,671
694,32	55,766
694,51	55,687
694,69	55,799
694,88	55,515
695,07	55,391
695,25	55,298
695,44	55,126
695,63	55,363
695,81	55,488
696,00	55,528
696,19	55,764
696,37	55,791
696,56	55,974
696,75	56,226
696,93	56,402
697,12	56,495
697,31	56,886
697,49	56,875
697,68	57,035
697,87	57,144
698,05	57,097
698,24	57,220
698,43	57,180
698,61	57,072
698,80	56,925
698,99	57,036
699,17	57,149
699,36	56,990
699,55	57,131
699,73	57,042
699,92	56,922
700,11	57,035
700,29	57,097
700,48	57,171
700,66	57,199
700,85	57,107
701,04	56,760
701,22	56,701
701,41	56,704
701,60	56,852
701,78	56,852
701,97	56,901
702,16	56,859
702,34	56,644
702,53	56,752
702,71	56,747
702,90	56,991
703,09	57,195
703,27	57,336
703,46	57,176
703,64	57,147
703,83	57,702
704,02	57,778
704,20	57,849
704,39	57,914
704,57	57,832
704,76	57,775
704,95	57,955
705,13	58,015
705,32	57,875
705,50	57,976
705,69	57,977
705,88	57,649
706,06	57,680
706,25	57,903
706,43	57,768
706,62	57,795
706,81	57,940
706,99	57,779
707,18	57,752
707,36	57,798
707,55	57,785
707,73	57,759
707,92	57,797
708,11	57,842
708,29	57,588
708,48	57,897
708,66	57,943
708,85	58,013
709,03	58,113
709,22	58,196
709,41	58,281
709,59	58,576
709,78	58,638
709,96	58,573
710,15	58,683
710,33	58,827
710,52	58,804
710,71	58,811
710,89	58,872
711,08	58,598
711,26	58,810
711,45	58,985
711,63	58,923
711,82	58,868
712,00	59,018
712,19	58,948
712,37	58,907
712,56	58,972
712,74	59,099
712,93	59,134
713,12	59,391
713,30	59,341
713,49	59,293
713,67	59,350
713,86	59,444
714,04	59,218
714,23	59,242
714,41	59,356
714,60	59,409
714,78	59,548
714,97	59,473
715,15	59,408
715,34	59,446
715,52	59,469
715,71	59,364
715,89	59,451
716,08	59,554
716,26	59,709
716,45	59,667
716,63	59,589
716,82	59,282
717,00	59,226
717,19	59,405
717,37	59,257
717,56	59,216
717,74	59,283
717,93	59,198
718,11	59,546
718,30	59,566
718,48	59,870
718,67	59,760
718,85	59,724
719,04	59,583
719,22	59,623
719,41	59,741
719,59	59,717
719,78	59,601
719,96	59,489
720,14	59,185
720,33	59,095
720,51	58,899
720,70	59,030
720,88	59,093
721,07	59,494
721,25	59,625
721,44	59,559
721,62	59,795
721,81	59,868
721,99	60,001
722,18	60,082
722,36	60,202
722,54	60,392
722,73	60,441
722,91	60,598
723,10	60,277
723,28	60,139
723,47	60,376
723,65	60,275
723,84	60,612
724,02	60,696
724,20	60,708
724,39	60,664
724,57	60,455
724,76	60,528
724,94	60,729
725,13	60,852
725,31	60,810
725,49	60,809
725,68	60,739
725,86	60,570
726,05	60,559
726,23	60,660
726,41	60,685
726,60	60,983
726,78	61,161
726,97	61,008
727,15	61,136
727,34	61,245
727,52	61,181
727,70	61,139
727,89	61,243
728,07	61,253
728,26	61,287
728,44	61,276
728,62	61,199
728,81	61,116
728,99	61,157
729,17	61,238
729,36	61,398
729,54	61,408
729,73	61,590
729,91	61,481
730,09	61,418
730,28	61,263
730,46	61,622
730,65	61,469
730,83	61,394
731,01	61,454
731,20	61,496
731,38	61,373
731,56	61,402
731,75	61,221
731,93	61,395
732,12	61,690
732,30	61,616
732,48	61,296
732,67	61,392
732,85	61,679
733,03	61,779
733,22	61,856
733,40	61,890
733,58	61,919
733,77	62,080
733,95	62,102
734,13	62,021
734,32	62,124
734,50	62,217
734,68	62,279
734,87	62,041
735,05	61,996
735,23	62,112
735,42	61,966
735,60	61,947
735,78	61,815
735,97	61,647
736,15	61,477
736,33	61,639
736,52	61,664
736,70	61,646
736,88	61,701
737,07	61,621
737,25	61,422
737,43	61,522
737,62	61,509
737,80	61,665
737,98	61,850
738,17	61,881
738,35	61,817
738,53	61,647
738,72	61,812
738,90	61,934
739,08	62,283
739,26	62,531
739,45	62,536
739,63	62,634
739,81	62,614
740,00	62,699
740,18	62,791
740,36	63,051
740,54	63,286
740,73	63,006
740,91	63,000
741,09	62,771
741,28	62,459
741,46	62,727
741,64	62,730
741,82	62,888
742,01	62,832
742,19	62,792
742,37	62,625
742,56	62,590
742,74	62,810
742,92	62,781
743,10	62,832
743,29	62,809
743,47	62,772
743,65	62,972
743,83	62,830
744,02	62,809
744,20	62,911
744,38	63,021
744,56	62,898
744,75	62,753
744,93	62,674
745,11	62,801
745,29	63,028
745,48	62,911
745,66	62,668
745,84	62,737
746,02	62,681
746,21	62,754
746,39	62,715
746,57	62,880
746,75	63,063
746,94	63,146
747,12	63,130
747,30	63,304
747,48	63,414
747,66	63,609
747,85	63,832
748,03	63,705
748,21	63,612
748,39	63,690
748,58	63,641
748,76	63,553
748,94	63,461
749,12	63,228
749,30	63,076
749,49	63,104
749,67	62,826
749,85	62,695
750,03	63,065
750,21	63,110
750,40	63,197
750,58	63,368
750,76	63,304
750,94	63,458
751,12	63,663
751,31	63,647
751,49	63,494
751,67	63,501
751,85	63,313
752,03	63,168
752,22	63,187
752,40	63,077
752,58	62,992
752,76	63,300
752,94	63,267
753,12	63,149
753,31	63,164
753,49	63,350
753,67	63,585
753,85	63,674
754,03	63,676
754,21	63,779
754,40	63,965
754,58	63,931
754,76	63,824
754,94	63,984
755,12	64,185
755,30	64,258
755,49	64,311
755,67	64,224
755,85	64,360
756,03	64,267
756,21	64,186
756,39	63,992
756,57	64,131
756,76	64,119
756,94	64,040
757,12	63,859
757,30	63,698
757,48	63,635
757,66	63,755
757,84	63,769
758,02	63,715
758,21	63,870
758,39	63,800
758,57	63,694
758,75	63,516
758,93	63,496
759,11	63,609
759,29	63,966
759,47	63,854
759,66	63,566
759,84	63,265
760,02	63,239
760,20	62,518
760,38	62,341
760,56	62,123
760,74	62,204
760,92	61,874
761,10	61,927
761,29	61,279
761,47	61,675
761,65	61,979
761,83	61,890
762,01	61,684
762,19	61,862
762,37	62,003
762,55	62,125
762,73	62,478
762,91	62,634
763,09	62,375
763,28	62,883
763,46	62,488
763,64	62,164
763,82	62,920
764,00	63,122
764,18	63,074
764,36	62,984
764,54	63,096
764,72	63,037
764,90	63,003
765,08	63,211
765,26	62,854
765,44	62,939
765,62	63,147
765,80	62,869
765,99	62,990
766,17	63,024
766,35	63,191
766,53	63,073
766,71	63,162
766,89	63,435
767,07	63,096
767,25	63,460
767,43	63,426
767,61	63,273
767,79	63,223
767,97	63,281
768,15	63,362
768,33	63,153
768,51	63,239
768,69	63,090
768,87	63,070
769,05	63,383
769,23	63,034
769,41	63,082
769,59	63,322
769,77	63,412
769,95	63,487
770,13	63,472
770,31	63,710
770,49	63,786
770,67	63,818
770,85	63,830
771,03	63,715
771,21	63,937
771,39	64,069
771,57	64,088
771,75	64,034
771,93	64,060
772,11	64,098
772,29	64,165
772,47	64,163
772,65	64,278
772,83	64,214
773,01	64,435
773,19	64,449
773,37	64,183
773,55	64,065
773,73	64,115
773,91	64,024
774,09	64,182
774,27	64,132
774,45	64,166
774,63	63,954
774,81	64,071
774,99	63,799
775,17	63,605
775,35	63,697
775,53	63,725
775,71	63,621
775,89	63,447
776,07	63,321
776,25	63,208
776,43	63,024
776,61	63,184
776,79	63,074
776,97	63,244
777,15	63,486
777,33	63,549
777,51	63,633
777,69	63,683
777,87	63,898
778,04	63,807
778,22	63,768
778,40	63,869
778,58	63,987
778,76	63,869
778,94	63,941
779,12	63,908
779,30	63,953
779,48	63,932
779,66	64,122
779,84	63,981
780,02	64,082
780,20	64,473
780,38	64,510
780,56	64,322
780,73	64,616
780,91	64,668
781,09	64,766
781,27	64,641
781,45	64,632
781,63	64,456
781,81	64,412
781,99	64,582
782,17	64,425
782,35	63,911
782,53	63,956
782,70	63,544
782,88	63,487
783,06	63,404
783,24	63,493
783,42	63,726
783,60	63,758
783,78	63,855
783,96	63,652
784,14	63,493
784,31	64,047
784,49	64,150
784,67	64,458
784,85	64,448
785,03	64,280
785,21	64,228
785,39	64,062
785,57	64,414
785,74	64,468
785,92	64,769
786,10	64,942
786,28	64,866
786,46	64,853
786,64	64,874
786,82	64,952
786,99	65,433
787,17	65,562
787,35	65,682
787,53	65,395
787,71	65,575
787,89	65,592
788,07	65,529
788,24	65,598
788,42	65,586
788,60	65,335
788,78	64,979
788,96	64,609
789,14	64,699
789,31	64,474
789,49	64,367
789,67	64,273
789,85	63,980
790,03	63,776
790,21	63,746
790,38	63,703
790,56	63,791
790,74	64,092
790,92	64,092
791,10	63,924
791,28	63,955
791,45	64,125
791,63	64,186
791,81	64,036
791,99	64,293
792,17	64,240
792,34	64,463
792,52	64,486
792,70	64,411
792,88	64,432
793,06	64,384
793,23	64,096
793,41	63,735
793,59	63,839
793,77	64,079
793,95	64,009
794,12	64,204
794,30	64,011
794,48	63,884
794,66	63,775
794,84	63,747
795,01	64,143
795,19	64,605
795,37	65,058
795,55	64,666
795,72	64,156
795,90	64,084
796,08	64,004
796,26	63,464
796,44	63,536
796,61	63,694
796,79	63,573
796,97	63,241
797,15	62,721
797,32	62,565
797,50	62,707
797,68	63,097
797,86	62,794
798,03	62,783
798,21	63,319
798,39	63,506
798,57	63,319
798,74	63,656
798,92	63,495
799,10	63,699
799,28	63,529
799,45	63,175
799,63	62,996
799,81	63,286
799,98	63,043
800,16	62,814
800,34	62,626
800,52	63,058
800,69	62,617
800,87	62,576
801,05	62,901
801,23	62,787
801,40	63,063
801,58	63,088
801,76	63,227
801,93	63,155
802,11	63,209
802,29	63,138
802,47	62,646
802,64	63,403
802,82	63,668
803,00	63,386
803,17	63,567
803,35	63,432
803,53	63,586
803,70	63,547
803,88	63,688
804,06	63,597
804,24	63,448
804,41	63,293
804,59	62,492
804,77	62,140
804,94	62,201
805,12	62,208
805,30	62,181
805,47	62,249
805,65	62,020
805,83	61,866
806,00	61,822
806,18	61,898
806,36	62,134
806,53	62,093
806,71	62,235
806,89	62,153
807,06	62,163
807,24	62,155
807,42	62,072
807,59	62,189
807,77	62,371
807,95	62,882
808,12	62,375
808,30	62,533
808,48	62,936
808,65	62,733
808,83	62,861
809,01	62,938
809,18	63,552
809,36	63,148
809,53	62,782
809,71	62,832
809,89	62,198
810,06	62,630
810,24	62,548
810,42	62,225
810,59	62,727
810,77	62,801
810,95	62,370
811,12	62,282
811,30	62,472
811,47	62,774
811,65	62,289
811,83	62,561
812,00	62,838
812,18	62,567
812,35	62,737
812,53	61,928
812,71	61,341
812,88	61,545
813,06	60,947
813,24	61,307
813,41	61,340
813,59	61,454
813,76	61,154
813,94	60,796
814,11	60,206
814,29	59,785
814,47	60,023
814,64	60,230
814,82	60,022
814,99	60,246
815,17	59,528
815,35	59,361
815,52	60,105
815,70	60,498
815,87	60,325
816,05	60,971
816,22	60,803
816,40	60,932
816,58	60,892
816,75	60,962
816,93	60,837
817,10	61,265
817,28	61,031
817,45	59,909
817,63	59,454
817,81	59,826
817,98	59,633
818,16	60,451
818,33	60,598
818,51	60,280
818,68	60,218
818,86	60,885
819,03	60,754
819,21	60,919
819,38	61,697
819,56	61,751
819,74	60,988
819,91	61,246
820,09	60,994
820,26	60,623
820,44	60,610
820,61	60,328
820,79	60,098
820,96	60,349
821,14	60,556
821,31	60,525
821,49	60,075
821,66	60,725
821,84	60,195
822,01	60,165
822,19	60,415
822,36	60,382
822,54	60,756
822,71	60,461
822,89	60,468
823,06	60,489
823,24	60,507
823,41	60,437
823,59	60,825
823,76	61,535
823,94	61,546
824,11	61,258
824,29	61,582
824,46	61,812
824,64	61,211
824,81	61,208
824,99	60,890
825,16	60,588
825,34	61,200
825,51	61,262
825,69	60,772
825,86	60,726
826,04	60,888
826,21	61,498
826,39	61,221
826,56	61,067
826,74	60,916
826,91	61,405
827,09	61,410
827,26	61,672
827,43	60,637
827,61	61,041
827,78	60,901
827,96	60,866
828,13	60,276
828,31	60,391
828,48	60,779
828,66	60,421
828,83	59,277
829,01	59,097
829,18	59,028
829,35	59,786
829,53	60,043
829,70	60,007
829,88	60,719
830,05	61,258
830,23	61,135
830,40	61,343
830,57	61,595
830,75	62,418
830,92	62,489
831,10	62,393
831,27	61,998
831,45	61,668
831,62	61,941
831,79	61,295
831,97	60,628
832,14	60,728
832,32	60,457
832,49	60,445
832,66	60,679
832,84	60,949
833,01	60,685
833,19	60,478
833,36	60,127
833,53	59,555
833,71	59,575
833,88	59,236
834,06	58,964
834,23	58,979
834,40	59,456
834,58	58,753
834,75	58,686
834,93	59,136
835,10	59,871
835,27	59,846
835,45	60,001
835,62	59,976
835,79	60,274
835,97	60,816
836,14	60,522
836,32	59,462
836,49	59,774
836,66	59,540
836,84	58,792
837,01	58,365
837,18	58,721
837,36	58,541
837,53	58,547
837,71	58,560
837,88	58,354
838,05	58,046
838,23	58,777
838,40	58,947
838,57	58,937
838,75	59,254
838,92	58,980
839,09	58,707
839,27	59,398
839,44	59,433
839,61	59,406
839,79	59,444
839,96	60,109
840,13	60,415
840,31	60,508
840,48	60,378
840,65	60,491
840,83	60,554
841,00	60,070
841,17	59,321
841,35	59,489
841,52	60,901
841,69	61,160
841,86	61,474
842,04	62,036
842,21	61,366
842,38	61,766
842,56	62,039
842,73	61,968
842,90	62,448
843,08	62,508
843,25	62,274
843,42	60,429
843,60	60,235
843,77	59,877
843,94	59,021
844,11	59,438
844,29	59,233
844,46	58,612
844,63	59,294
844,81	58,977
844,98	59,003
845,15	58,796
845,32	59,272
845,50	58,240
845,67	58,378
845,84	58,343
846,01	58,500
846,19	58,240
846,36	58,557
846,53	58,548
846,71	58,359
846,88	57,673
847,05	57,499
847,22	57,940
847,40	58,236
847,57	57,951
847,74	57,526
847,91	56,304
848,09	56,386
848,26	56,014
848,43	55,590
848,60	56,228
848,78	57,011
848,95	56,648
849,12	55,927
849,29	56,530
849,46	56,345
849,64	55,901
849,81	56,897
849,98	57,162
850,15	57,209
850,33	56,938
850,50	57,216
850,67	57,467
850,84	58,265
851,02	58,666
851,19	58,528
851,36	59,044
851,53	59,465
851,70	59,384
851,88	59,232
852,05	59,011
852,22	59,492
852,39	58,539
852,56	58,263
852,74	58,090
852,91	58,351
853,08	57,670
853,25	57,096
853,42	56,671
853,60	55,948
853,77	55,657
853,94	56,896
854,11	56,896
854,28	57,484
854,45	57,537
854,63	57,024
854,80	56,260
854,97	56,610
855,14	57,349
855,31	57,818
855,49	57,558
855,66	57,282
855,83	56,024
856,00	55,738
856,17	56,069
856,34	56,356
856,52	57,222
856,69	56,775
856,86	57,017
857,03	55,933
857,20	55,714
857,37	55,991
857,54	56,555
857,72	57,368
857,89	57,717
858,06	56,104
858,23	56,002
858,40	55,965
858,57	56,495
858,74	56,098
858,92	57,021
859,09	56,942
859,26	57,478
859,43	57,475
859,60	56,831
859,77	56,986
859,94	57,312
860,11	56,476
860,29	56,826
860,46	56,242
860,63	57,036
860,80	57,039
860,97	57,925
861,14	57,457
861,31	56,698
861,48	56,717
861,65	55,508
861,83	56,187
862,00	56,898
862,17	55,847
862,34	56,474
862,51	55,292
862,68	54,600
862,85	53,742
863,02	53,709
863,19	54,947
863,36	54,300
863,54	55,465
863,71	54,714
863,88	54,485
864,05	54,342
864,22	54,572
864,39	55,295
864,56	56,045
864,73	59,709
864,90	60,266
865,07	59,972
865,24	61,176
865,41	61,534
865,58	62,352
865,75	63,399
865,93	64,095
866,10	64,140
866,27	64,520
866,44	64,337
866,61	60,059
866,78	61,624
866,95	61,882
867,12	61,650
867,29	60,352
867,46	59,320
867,63	58,878
867,80	57,857
867,97	56,544
868,14	56,355
868,31	55,168
868,48	55,151
868,65	53,726
868,82	53,209
868,99	52,039
869,16	51,181
869,33	52,487
869,50	51,801
869,67	53,490
869,84	53,882
870,01	53,454
870,18	54,619
870,35	55,214
870,52	54,153
870,69	53,584
870,86	54,381
871,03	55,278
871,20	55,152
871,37	54,594
871,54	53,701
871,71	54,626
871,88	55,401
872,05	54,244
872,22	53,175
872,39	53,660
872,56	53,479
872,73	53,368
872,90	54,709
873,07	53,448
873,24	54,148
873,41	54,113
873,58	53,513
873,75	53,236
873,92	53,104
874,09	53,299
874,26	53,675
874,43	54,480
874,60	53,687
874,77	52,416
874,94	53,668
875,11	53,963
875,28	53,682
875,45	54,011
875,62	53,820
875,79	56,028
875,96	57,388
876,13	57,805
876,30	56,892
876,47	58,271
876,64	58,569
876,81	58,080
876,97	58,021
877,14	56,892
877,31	55,736
877,48	54,801
877,65	52,693
877,82	51,926
877,99	51,117
878,16	52,328
878,33	51,502
878,50	50,528
878,67	51,661
878,84	50,311
879,01	51,718
879,18	52,558
879,34	53,068
879,51	54,194
879,68	53,135
879,85	53,218
880,02	52,775
880,19	52,836
880,36	54,058
880,53	53,544
880,70	54,026
880,87	54,116
881,03	53,775
881,20	54,227
881,37	53,250
881,54	55,084
881,71	54,811
881,88	54,191
882,05	53,700
882,22	52,761
882,39	52,344
882,55	58,551
882,72	57,709
882,89	57,080
883,06	56,606
883,23	58,066
883,40	56,489
883,57	57,623
883,74	57,671
883,90	58,330
884,07	57,832
884,24	59,309
884,41	54,328
884,58	54,398
884,75	55,099
884,92	56,275
885,08	56,092
885,25	56,162
885,42	55,291
885,59	55,058
885,76	54,646
885,93	54,927
886,10	53,911
886,26	52,997
886,43	54,030
886,60	54,852
886,77	52,502
886,94	50,227
887,11	50,255
887,27	49,991
887,44	51,349
887,61	51,458
887,78	51,251
887,95	48,949
888,11	47,718
888,28	47,989
888,45	45,786
888,62	46,713
888,79	47,948
888,96	48,510
889,12	47,948
889,29	44,501
889,46	43,380
889,63	43,004
889,80	43,669
889,96	44,611
890,13	45,211
890,30	48,317
890,47	48,605
890,64	49,312
890,80	49,294
890,97	50,120
891,14	53,075
891,31	54,474
891,47	55,826
891,64	55,826
891,81	55,826
891,98	55,826
892,15	55,826
>>>>>End Processed Spectral Data<<<<<
